%OpenBCI Raw EEG Data
%
%Sample Rate = 250.0 Hz
%First Column = SampleIndex
%Other Columns = EEG data in microvolts followed by Accel Data (in G) interleaved with Aux Data
0, -48303.59, -55638.21, -187500.02, -73766.34, -1926.03, -48160.52, -82321.25, -30282.77, -0.10, 0.79, 0.51
1, -46769.06, -54515.90, -187500.02, -84755.15, -1292.98, -47213.10, -83152.91, -28825.05, 0.00, 0.00, 0.00
2, -47200.87, -54274.32, -187500.02, -86539.29, -1218.97, -46946.84, -82205.94, -29055.77, 0.00, 0.00, 0.00
3, -48795.69, -55327.38, -187500.02, -76436.41, -1869.43, -47802.31, -81276.33, -30510.98, 0.00, 0.00, 0.00
4, -48716.21, -55905.73, -187500.02, -72513.82, -2120.00, -48308.91, -82116.66, -30625.35, 0.00, 0.00, 0.00
5, -47181.11, -54991.48, -187500.02, -83030.18, -1628.95, -47564.46, -83330.99, -29228.32, 0.00, 0.00, 0.00
6, -47364.73, -54598.54, -187500.02, -87380.88, -1529.80, -47224.47, -82734.95, -29245.60, 0.00, 0.00, 0.00
7, -48891.71, -55473.43, -187500.02, -78513.79, -2079.54, -47952.83, -81678.23, -30614.11, 0.08, 0.73, 0.66
8, -49184.65, -56213.23, -187500.02, -72038.48, -2421.72, -48584.91, -82147.33, -31052.21, 0.00, 0.00, 0.00
9, -47562.95, -55367.19, -187500.02, -81126.23, -1910.31, -47904.48, -83465.45, -29623.91, 0.00, 0.00, 0.00
10, -47287.62, -54651.33, -187500.02, -87670.00, -1598.55, -47301.83, -83077.56, -29208.70, 0.00, 0.00, 0.00
11, -48646.13, -55251.61, -187500.02, -80490.84, -1977.01, -47792.83, -81869.72, -30378.79, 0.00, 0.00, 0.00
12, -49319.84, -56120.24, -187500.02, -72001.91, -2428.20, -48523.38, -81941.63, -31139.44, 0.00, 0.00, 0.00
13, -47782.75, -55473.77, -187500.02, -78948.20, -1982.91, -48006.52, -83288.88, -29837.19, 0.00, 0.00, 0.00
14, -47136.41, -54589.93, -187500.02, -87351.02, -1557.89, -47244.50, -83208.12, -29091.17, 0.00, 0.00, 0.00
15, -48381.06, -55061.38, -187500.02, -82283.20, -1877.41, -47631.23, -82039.41, -30139.18, 0.00, 0.00, 0.00
16, -49397.62, -56050.17, -187500.02, -72541.45, -2407.26, -48463.74, -81805.55, -31175.61, 0.00, 0.00, 0.00
17, -48155.25, -55716.82, -187500.02, -76922.14, -2134.90, -48203.82, -83130.76, -30172.89, 0.07, 0.73, 0.65
18, -47184.55, -54718.12, -187500.02, -86657.06, -1644.64, -47368.02, -83399.52, -29166.32, 0.00, 0.00, 0.00
19, -48177.64, -54945.82, -187500.02, -83874.67, -1837.51, -47538.40, -82274.34, -29964.30, 0.00, 0.00, 0.00
20, -49431.11, -55988.17, -187500.02, -73619.91, -2429.61, -48406.52, -81766.03, -31197.87, 0.00, 0.00, 0.00
21, -48466.34, -55916.29, -187500.02, -75128.41, -2253.08, -48348.18, -82916.27, -30487.80, 0.00, 0.00, 0.00
22, -47132.83, -54786.05, -187500.02, -85548.48, -1618.04, -47383.26, -83429.00, -29180.49, 0.00, 0.00, 0.00
23, -47801.48, -54717.54, -187500.02, -85105.05, -1617.84, -47304.27, -82358.11, -29653.70, 0.00, 0.00, 0.00
24, -49163.04, -55683.51, -187500.02, -74866.83, -2165.17, -48114.79, -81569.65, -30934.90, 0.00, 0.00, 0.00
25, -48419.35, -55729.85, -187500.02, -73428.34, -1987.49, -48136.43, -82383.86, -30418.02, 0.00, 0.00, 0.00
26, -46643.33, -54379.56, -187500.02, -83873.06, -1109.34, -46959.47, -82974.23, -28717.01, 0.00, 0.00, 0.00
27, -46910.19, -53972.66, -187500.02, -85791.00, -898.25, -46572.81, -81943.46, -28789.18, 0.07, 0.73, 0.65
28, -48385.54, -54890.88, -187500.02, -76069.51, -1443.01, -47334.33, -80951.49, -30144.43, 0.00, 0.00, 0.00
29, -47930.21, -55093.58, -187500.02, -71716.60, -1292.24, -47467.37, -81396.55, -29895.21, 0.00, 0.00, 0.00
30, -45604.82, -53410.30, -187500.02, -81363.27, -11.33, -45949.35, -81882.69, -27709.55, 0.00, 0.00, 0.00
31, -45482.02, -52680.07, -187500.02, -85627.12, 357.69, -45281.35, -80944.42, -27405.81, 0.00, 0.00, 0.00
32, -47500.09, -53973.85, -187500.02, -77297.47, -662.10, -46436.24, -80190.55, -29238.54, 0.00, 0.00, 0.00
33, -47979.14, -54918.28, -187500.02, -70722.19, -1142.20, -47268.33, -80797.24, -29875.43, 0.00, 0.00, 0.00
34, -45258.23, -53085.64, -187500.02, -78822.87, 452.44, -45590.45, -81270.54, -27384.73, 0.00, 0.00, 0.00
35, -44503.66, -51831.28, -187500.02, -85135.22, 1207.55, -44435.96, -80335.30, -26457.51, 0.00, 0.00, 0.00
36, -47308.54, -53741.55, -187500.02, -78839.02, -594.69, -46214.38, -80107.55, -29030.87, 0.00, 0.00, 0.00
37, -49276.90, -55960.99, -187500.02, -70990.13, -2276.46, -48275.41, -81386.63, -31106.03, 0.07, 0.73, 0.66
38, -46889.51, -54626.03, -187500.02, -77292.02, -985.44, -47076.59, -82309.11, -29002.93, 0.00, 0.00, 0.00
39, -45548.29, -52988.99, -187500.02, -85371.10, 89.47, -45593.06, -81584.73, -27539.49, 0.00, 0.00, 0.00
40, -47777.55, -54323.50, -187500.02, -81097.80, -1218.21, -46846.73, -81076.30, -29539.19, 0.00, 0.00, 0.00
41, -49916.65, -56482.70, -187500.02, -72610.55, -2880.56, -48837.06, -81949.30, -31722.44, 0.00, 0.00, 0.00
42, -48010.74, -55609.21, -187500.02, -76361.63, -1915.92, -48011.23, -82871.50, -30095.68, 0.00, 0.00, 0.00
43, -46077.20, -53633.93, -187500.02, -84795.01, -468.78, -46184.63, -82198.76, -28110.80, 0.00, 0.00, 0.00
44, -47628.04, -54322.61, -187500.02, -82368.43, -1246.60, -46831.84, -81408.25, -29432.98, 0.00, 0.00, 0.00
45, -49936.34, -56433.19, -187500.02, -73895.29, -2920.50, -48798.06, -81999.98, -31725.37, 0.00, 0.00, 0.00
46, -48602.44, -56061.44, -187500.02, -75467.78, -2336.05, -48440.50, -82970.27, -30665.97, 0.00, 0.00, 0.00
47, -46296.12, -53950.83, -187500.02, -84229.28, -704.35, -46483.74, -82480.48, -28373.30, 0.08, 0.73, 0.66
48, -47382.03, -54204.66, -187500.02, -83716.76, -1156.77, -46725.40, -81588.49, -29222.42, 0.00, 0.00, 0.00
49, -49987.60, -56418.75, -187500.02, -75173.70, -2991.49, -48792.67, -82021.87, -31756.89, 0.00, 0.00, 0.00
50, -49418.66, -56711.56, -187500.02, -74363.23, -2940.46, -49040.62, -83162.81, -31438.53, 0.00, 0.00, 0.00
51, -46807.50, -54544.42, -187500.02, -83201.28, -1170.27, -47028.85, -82944.62, -28911.69, 0.00, 0.00, 0.00
52, -47205.92, -54191.71, -187500.02, -84767.13, -1128.41, -46717.02, -81910.22, -29093.50, 0.00, 0.00, 0.00
53, -49761.78, -56173.82, -187500.02, -76624.91, -2822.82, -48575.08, -81979.40, -31520.45, 0.00, 0.00, 0.00
54, -49829.23, -56931.07, -187500.02, -73504.65, -3178.55, -49259.27, -83051.28, -31805.73, 0.00, 0.00, 0.00
55, -47156.14, -54903.32, -187500.02, -81758.70, -1460.40, -47367.79, -83094.77, -29279.18, 0.00, 0.00, 0.00
56, -46978.22, -54100.41, -187500.02, -85206.61, -1051.69, -46635.10, -82066.41, -28912.81, 0.00, 0.00, 0.00
57, -49461.39, -55893.82, -187500.02, -78043.95, -2637.62, -48314.90, -81925.38, -31232.58, 0.08, 0.73, 0.66
58, -50239.70, -57154.44, -187500.02, -73096.51, -3450.46, -49476.23, -82977.59, -32175.69, 0.00, 0.00, 0.00
59, -47679.38, -55411.09, -187500.02, -80281.45, -1877.19, -47841.49, -83311.77, -29820.96, 0.00, 0.00, 0.00
60, -46930.32, -54200.39, -187500.02, -85456.35, -1107.22, -46721.98, -82349.44, -28917.72, 0.00, 0.00, 0.00
61, -49186.18, -55694.69, -187500.02, -79601.40, -2479.30, -48135.69, -81999.65, -30983.65, 0.00, 0.00, 0.00
62, -50528.57, -57289.04, -187500.02, -73170.45, -3624.58, -49616.89, -82926.78, -32420.78, 0.00, 0.00, 0.00
63, -48205.49, -55886.38, -187500.02, -78756.73, -2261.57, -48283.32, -83463.11, -30336.59, 0.00, 0.00, 0.00
64, -46821.61, -54240.35, -187500.02, -85271.66, -1095.66, -46751.49, -82545.03, -28854.65, 0.00, 0.00, 0.00
65, -48624.88, -55233.19, -187500.02, -80931.55, -2067.22, -47686.26, -81884.80, -30452.71, 0.00, 0.00, 0.00
66, -50303.70, -56947.79, -187500.02, -73436.50, -3336.98, -49280.36, -82538.06, -32177.37, 0.00, 0.00, 0.00
67, -48414.01, -55991.03, -187500.02, -77066.98, -2311.53, -48361.66, -83223.25, -30543.39, 0.07, 0.73, 0.66
68, -46574.82, -54112.43, -187500.02, -84620.64, -909.13, -46599.05, -82488.06, -28656.50, 0.00, 0.00, 0.00
69, -47939.73, -54665.17, -187500.02, -82039.28, -1546.20, -47121.21, -81645.11, -29808.73, 0.00, 0.00, 0.00
70, -49920.65, -56463.03, -187500.02, -73856.71, -2933.62, -48793.99, -82046.34, -31776.63, 0.00, 0.00, 0.00
71, -48684.47, -56118.84, -187500.02, -75285.45, -2389.83, -48438.15, -82934.89, -30784.79, 0.00, 0.00, 0.00
72, -46657.72, -54284.09, -187500.02, -83745.77, -1010.16, -46744.25, -82621.05, -28773.49, 0.00, 0.00, 0.00
73, -47617.37, -54473.30, -187500.02, -83325.31, -1385.00, -46940.25, -81775.30, -29518.99, 0.00, 0.00, 0.00
74, -49892.85, -56353.08, -187500.02, -74945.59, -2911.96, -48698.14, -81976.77, -31718.60, 0.00, 0.00, 0.00
75, -49364.90, -56612.25, -187500.02, -73917.22, -2874.77, -48920.21, -82995.58, -31420.40, 0.00, 0.00, 0.00
76, -47038.60, -54723.42, -187500.02, -82639.16, -1360.24, -47165.78, -82974.79, -29175.53, 0.00, 0.00, 0.00
77, -47456.24, -54422.81, -187500.02, -84427.03, -1361.36, -46908.24, -82060.90, -29383.89, 0.07, 0.74, 0.66
78, -49859.41, -56261.29, -187500.02, -76385.01, -2920.57, -48633.24, -82031.91, -31662.72, 0.00, 0.00, 0.00
79, -50035.07, -57075.49, -187500.02, -72763.42, -3325.85, -49357.95, -83037.64, -32034.18, 0.00, 0.00, 0.00
80, -47620.86, -55330.89, -187500.02, -81098.66, -1878.28, -47733.73, -83349.38, -29773.01, 0.00, 0.00, 0.00
81, -47358.92, -54497.78, -187500.02, -85184.41, -1428.12, -46981.96, -82438.73, -29336.87, 0.00, 0.00, 0.00
82, -49664.17, -56082.07, -187500.02, -78060.24, -2812.59, -48460.21, -82095.77, -31468.06, 0.00, 0.00, 0.00
83, -50539.08, -57377.64, -187500.02, -72230.35, -3647.72, -49631.46, -83002.33, -32482.58, 0.00, 0.00, 0.00
84, -48161.77, -55859.69, -187500.02, -79469.93, -2299.03, -48231.42, -83596.05, -30315.07, 0.00, 0.00, 0.00
85, -47316.56, -54601.87, -187500.02, -85571.66, -1506.22, -47091.77, -82774.52, -29325.96, 0.00, 0.00, 0.00
86, -49380.97, -55866.30, -187500.02, -79864.23, -2660.84, -48274.31, -82197.13, -31195.19, 0.00, 0.00, 0.00
87, -50802.65, -57469.48, -187500.02, -72315.87, -3796.06, -49732.05, -82901.34, -32697.67, 0.07, 0.74, 0.66
88, -48721.68, -56345.66, -187500.02, -77779.51, -2714.69, -48689.34, -83719.06, -30871.18, 0.00, 0.00, 0.00
89, -47394.23, -54805.29, -187500.02, -85588.65, -1684.58, -47289.00, -83117.40, -29451.93, 0.00, 0.00, 0.00
90, -49169.32, -55744.29, -187500.02, -81672.58, -2603.46, -48157.30, -82395.52, -31006.72, 0.00, 0.00, 0.00
91, -51074.72, -57595.46, -187500.02, -73045.05, -3987.98, -49846.71, -82914.44, -32926.58, 0.00, 0.00, 0.00
92, -49474.38, -56969.70, -187500.02, -76268.22, -3259.13, -49258.41, -83909.85, -31593.79, 0.00, 0.00, 0.00
93, -47627.72, -55164.59, -187500.02, -85252.10, -1948.56, -47609.93, -83530.63, -29723.88, 0.00, 0.00, 0.00
94, -48888.56, -55586.35, -187500.02, -83345.74, -2476.17, -48004.53, -82609.98, -30756.60, 0.00, 0.00, 0.00
95, -51090.66, -57513.81, -187500.02, -74164.09, -3982.75, -49772.59, -82849.40, -32918.69, 0.00, 0.00, 0.00
96, -49973.31, -57336.47, -187500.02, -74806.50, -3556.39, -49601.61, -83865.58, -32076.25, 0.00, 0.00, 0.00
97, -47774.04, -55400.63, -187500.02, -84368.83, -2107.59, -47835.55, -83729.05, -29909.81, 0.07, 0.73, 0.66
98, -48663.39, -55491.22, -187500.02, -84657.27, -2407.37, -47922.05, -82808.90, -30569.50, 0.00, 0.00, 0.00
99, -51016.89, -57390.11, -187500.02, -75594.24, -3927.78, -49653.48, -82825.88, -32821.03, 0.00, 0.00, 0.00
100, -50559.55, -57737.48, -187500.02, -73643.84, -3941.44, -49957.58, -83835.52, -32612.18, 0.00, 0.00, 0.00
101, -48110.77, -55798.58, -187500.02, -83129.53, -2422.50, -48191.30, -83973.02, -30268.44, 0.00, 0.00, 0.00
102, -48409.61, -55382.64, -187500.02, -85654.14, -2318.68, -47818.56, -83014.89, -30354.38, 0.00, 0.00, 0.00
103, -50858.02, -57197.42, -187500.02, -77266.20, -3825.19, -49498.96, -82818.82, -32660.21, 0.00, 0.00, 0.00
104, -51133.17, -58094.68, -187500.02, -72931.21, -4293.61, -50306.53, -83802.56, -33136.68, 0.00, 0.00, 0.00
105, -48685.36, -56365.38, -187500.02, -81645.35, -2891.42, -48729.95, -84264.09, -30859.58, 0.00, 0.00, 0.00
106, -48408.42, -55524.79, -187500.02, -86262.42, -2460.08, -47974.62, -83402.89, -30406.51, 0.00, 0.00, 0.00
107, -50699.07, -57099.18, -187500.02, -79137.65, -3807.49, -49421.92, -83009.91, -32515.55, 0.00, 0.00, 0.00
108, -51629.87, -58412.93, -187500.02, -72903.74, -4657.68, -50601.13, -83854.87, -33576.39, 0.08, 0.73, 0.66
109, -49325.56, -56970.48, -187500.02, -80006.03, -3388.50, -49276.52, -84527.41, -31489.67, 0.00, 0.00, 0.00
110, -48464.32, -55717.00, -187500.02, -86252.16, -2598.26, -48140.71, -83764.37, -30489.88, 0.00, 0.00, 0.00
111, -50336.17, -56838.92, -187500.02, -80736.33, -3578.51, -49173.32, -83114.71, -32174.53, 0.00, 0.00, 0.00
112, -51554.36, -58226.18, -187500.02, -73540.34, -4513.44, -50421.20, -83649.48, -33465.50, 0.00, 0.00, 0.00
113, -49664.25, -57220.82, -187500.02, -78521.25, -3558.53, -49474.87, -84420.28, -31801.61, 0.00, 0.00, 0.00
114, -48398.05, -55762.79, -187500.02, -86140.63, -2598.10, -48156.18, -83916.54, -30452.04, 0.00, 0.00, 0.00
115, -49932.48, -56513.19, -187500.02, -82102.45, -3314.81, -48842.61, -83074.88, -31791.02, 0.00, 0.00, 0.00
116, -51389.48, -57931.27, -187500.02, -73433.73, -4270.05, -50110.46, -83237.47, -33261.18, 0.00, 0.00, 0.00
117, -49784.02, -57257.57, -187500.02, -76410.82, -3519.30, -49478.16, -84109.66, -31906.53, 0.00, 0.00, 0.00
118, -48032.29, -55580.94, -187500.02, -86337.19, -2384.71, -47975.80, -83963.92, -30139.25, 0.10, 0.72, 0.67
119, -49152.47, -55870.66, -187500.02, -84552.00, -2738.11, -48210.23, -82869.11, -31031.15, 0.00, 0.00, 0.00
120, -50888.77, -57309.96, -187500.02, -73870.14, -3681.40, -49470.98, -82504.76, -32709.74, 0.00, 0.00, 0.00
121, -49719.31, -57052.89, -187500.02, -74343.66, -3251.46, -49243.13, -83472.27, -31798.71, 0.00, 0.00, 0.00
122, -47831.59, -55441.98, -187500.02, -85211.09, -2202.23, -47823.10, -83764.39, -29950.58, 0.00, 0.00, 0.00
123, -48603.13, -55439.16, -187500.02, -85524.43, -2349.93, -47802.24, -82723.70, -30497.10, 0.00, 0.00, 0.00
124, -50411.34, -56793.90, -187500.02, -74933.20, -3238.79, -48970.08, -82077.55, -32200.84, 0.00, 0.00, 0.00
125, -49873.25, -57014.34, -187500.02, -72379.06, -3177.55, -49160.89, -82937.13, -31888.94, 0.00, 0.00, 0.00
126, -47992.75, -55622.05, -187500.02, -82770.56, -2272.26, -47957.16, -83657.93, -30111.98, 0.00, 0.00, 0.00
127, -48310.01, -55298.53, -187500.02, -85586.08, -2201.20, -47657.70, -82838.89, -30242.31, 0.00, 0.00, 0.00
128, -49926.75, -56361.69, -187500.02, -76450.14, -2887.55, -48556.64, -81969.79, -31722.20, 0.11, 0.72, 0.68
129, -49913.68, -56891.63, -187500.02, -71409.62, -3059.51, -49005.01, -82516.31, -31876.07, 0.00, 0.00, 0.00
130, -48151.18, -55778.75, -187500.02, -80616.37, -2334.10, -48053.01, -83504.80, -30267.08, 0.00, 0.00, 0.00
131, -48067.78, -55196.89, -187500.02, -85749.36, -2098.99, -47552.60, -82971.59, -30026.86, 0.00, 0.00, 0.00
132, -49562.73, -56035.42, -187500.02, -78245.27, -2661.38, -48277.22, -81975.55, -31355.32, 0.00, 0.00, 0.00
133, -49977.74, -56776.91, -187500.02, -71474.08, -2998.04, -48904.43, -82233.32, -31888.47, 0.00, 0.00, 0.00
134, -48385.49, -55941.59, -187500.02, -78711.69, -2400.33, -48184.86, -83322.80, -30487.80, 0.00, 0.00, 0.00
135, -47968.92, -55194.10, -187500.02, -85469.73, -2059.29, -47550.59, -83082.13, -29955.40, 0.00, 0.00, 0.00
136, -49226.45, -55774.08, -187500.02, -79915.84, -2478.56, -48050.64, -82052.58, -31042.08, 0.00, 0.00, 0.00
137, -49907.04, -56584.20, -187500.02, -72233.28, -2907.38, -48733.44, -82013.58, -31780.09, 0.00, 0.00, 0.00
138, -48625.28, -56097.87, -187500.02, -77363.72, -2538.40, -48294.23, -83118.53, -30699.34, 0.11, 0.72, 0.68
139, -47926.92, -55261.80, -187500.02, -85385.88, -2147.80, -47585.45, -83190.15, -29936.74, 0.00, 0.00, 0.00
140, -49016.99, -55635.25, -187500.02, -81476.15, -2417.14, -47910.65, -82147.80, -30846.43, 0.00, 0.00, 0.00
141, -49993.52, -56527.87, -187500.02, -72233.28, -2874.30, -48658.61, -81780.27, -31833.82, 0.00, 0.00, 0.00
142, -48952.71, -56306.72, -187500.02, -74983.41, -2648.88, -48470.96, -82899.96, -31018.83, 0.00, 0.00, 0.00
143, -47936.93, -55367.95, -187500.02, -84589.77, -2191.57, -47688.61, -83360.88, -29997.07, 0.00, 0.00, 0.00
144, -48778.90, -55497.59, -187500.02, -83071.15, -2333.43, -47787.43, -82365.66, -30653.67, 0.00, 0.00, 0.00
145, -50057.56, -56467.59, -187500.02, -72916.15, -2876.96, -48597.81, -81675.71, -31877.30, 0.00, 0.00, 0.00
146, -49381.68, -56590.17, -187500.02, -72747.52, -2837.31, -48715.83, -82713.55, -31431.71, 0.00, 0.00, 0.00
147, -48087.72, -55615.05, -187500.02, -83444.67, -2362.31, -47911.39, -83571.90, -30192.62, 0.00, 0.00, 0.00
148, -48688.76, -55530.83, -187500.02, -84505.77, -2419.62, -47832.48, -82719.63, -30596.50, 0.11, 0.72, 0.68
149, -50098.19, -56473.80, -187500.02, -74561.13, -2941.69, -48609.77, -81809.98, -31890.46, 0.00, 0.00, 0.00
150, -49779.32, -56831.81, -187500.02, -71713.60, -3030.27, -48918.63, -82603.20, -31778.73, 0.00, 0.00, 0.00
151, -48382.11, -55945.70, -187500.02, -81997.66, -2612.07, -48209.96, -83714.88, -30505.66, 0.00, 0.00, 0.00
152, -48619.04, -55598.49, -187500.02, -85409.57, -2519.85, -47924.98, -83067.22, -30576.02, 0.00, 0.00, 0.00
153, -49918.93, -56331.18, -187500.02, -76691.29, -2914.27, -48528.00, -81986.77, -31743.14, 0.00, 0.00, 0.00
154, -50004.07, -56876.61, -187500.02, -71531.03, -3127.66, -48981.93, -82417.43, -31969.68, 0.00, 0.00, 0.00
155, -48621.05, -56141.75, -187500.02, -80459.30, -2739.45, -48391.10, -83666.63, -30741.61, 0.00, 0.00, 0.00
156, -48559.25, -55634.18, -187500.02, -85899.96, -2563.43, -47973.68, -83304.86, -30548.51, 0.00, 0.00, 0.00
157, -49752.95, -56192.35, -187500.02, -78500.33, -2835.83, -48429.90, -82136.11, -31596.11, 0.00, 0.00, 0.00
158, -50112.72, -56826.27, -187500.02, -71629.60, -3103.63, -48949.16, -82243.48, -32053.76, 0.11, 0.72, 0.68
159, -48857.11, -56295.86, -187500.02, -78728.63, -2825.95, -48511.26, -83505.29, -30976.14, 0.00, 0.00, 0.00
160, -48481.40, -55643.79, -187500.02, -85624.70, -2560.88, -47976.72, -83413.65, -30514.04, 0.00, 0.00, 0.00
161, -49520.49, -56012.46, -187500.02, -79966.54, -2739.14, -48286.98, -82232.89, -31391.77, 0.00, 0.00, 0.00
162, -50151.55, -56723.83, -187500.02, -71686.76, -3050.16, -48872.69, -82017.24, -32069.90, 0.00, 0.00, 0.00
163, -49019.59, -56388.73, -187500.02, -76772.07, -2838.18, -48590.39, -83271.02, -31143.58, 0.00, 0.00, 0.00
164, -48379.61, -55654.75, -187500.02, -85159.30, -2540.14, -47966.21, -83505.53, -30453.98, 0.00, 0.00, 0.00
165, -49310.67, -55888.61, -187500.02, -81346.65, -2659.92, -48141.21, -82365.77, -31208.76, 0.00, 0.00, 0.00
166, -50278.50, -56720.07, -187500.02, -71187.94, -3038.59, -48815.11, -81792.32, -32166.44, 0.00, 0.00, 0.00
167, -49306.47, -56626.76, -187500.02, -74187.94, -2942.38, -48771.39, -83125.77, -31434.40, 0.00, 0.00, 0.00
168, -48323.78, -55774.26, -187500.02, -85166.13, -2602.79, -48078.54, -83831.35, -30457.67, 0.10, 0.72, 0.67
169, -49126.16, -55852.58, -187500.02, -83603.73, -2673.29, -48102.92, -82699.09, -31060.47, 0.00, 0.00, 0.00
170, -50387.87, -56774.10, -187500.02, -72588.54, -3137.36, -48833.02, -81824.34, -32246.64, 0.00, 0.00, 0.00
171, -49764.84, -56965.52, -187500.02, -72561.12, -3167.85, -49017.35, -83000.63, -31854.48, 0.00, 0.00, 0.00
172, -48588.45, -56114.12, -187500.02, -84056.84, -2848.24, -48349.44, -84074.30, -30732.26, 0.00, 0.00, 0.00
173, -49147.82, -55998.47, -187500.02, -85040.16, -2847.72, -48233.77, -83158.55, -31106.81, 0.00, 0.00, 0.00
174, -50433.36, -56799.98, -187500.02, -74422.90, -3233.16, -48866.05, -82044.91, -32289.69, 0.00, 0.00, 0.00
175, -50144.48, -57190.29, -187500.02, -71338.77, -3367.02, -49214.47, -82871.34, -32207.43, 0.00, 0.00, 0.00
176, -48744.79, -56338.91, -187500.02, -82962.43, -3006.15, -48565.85, -84243.99, -30934.57, 0.00, 0.00, 0.00
177, -49015.79, -55986.36, -187500.02, -86682.84, -2894.13, -48244.85, -83521.05, -31031.19, 0.00, 0.00, 0.00
178, -50352.31, -56678.28, -187500.02, -76309.91, -3194.53, -48773.38, -82133.36, -32228.22, 0.09, 0.72, 0.67
179, -50420.68, -57251.24, -187500.02, -70207.68, -3413.13, -49267.51, -82594.99, -32463.99, 0.00, 0.00, 0.00
180, -48941.24, -56511.11, -187500.02, -80986.07, -3095.65, -48724.88, -84196.58, -31164.32, 0.00, 0.00, 0.00
181, -48873.25, -55957.86, -187500.02, -87341.65, -2900.90, -48238.46, -83788.28, -30941.05, 0.00, 0.00, 0.00
182, -50162.50, -56513.99, -187500.02, -78369.66, -3126.67, -48631.49, -82274.73, -32057.41, 0.00, 0.00, 0.00
183, -50596.48, -57223.37, -187500.02, -69706.30, -3415.68, -49240.24, -82310.09, -32609.79, 0.00, 0.00, 0.00
184, -49136.80, -56631.99, -187500.02, -78599.46, -3127.19, -48839.54, -83999.80, -31373.11, 0.00, 0.00, 0.00
185, -48718.69, -55893.26, -187500.02, -87301.46, -2857.96, -48215.44, -83961.60, -30835.97, 0.00, 0.00, 0.00
186, -49885.79, -56282.74, -187500.02, -80430.20, -3019.32, -48467.66, -82440.07, -31809.91, 0.00, 0.00, 0.00
187, -50645.30, -57099.68, -187500.02, -69838.60, -3356.43, -49127.50, -82041.36, -32619.33, 0.00, 0.00, 0.00
188, -49371.09, -56764.24, -187500.02, -76180.33, -3180.05, -48938.27, -83708.78, -31603.22, 0.10, 0.73, 0.66
189, -48647.05, -55937.23, -187500.02, -86876.51, -2881.30, -48264.32, -84113.88, -30820.62, 0.00, 0.00, 0.00
190, -49654.22, -56150.84, -187500.02, -82330.68, -2958.25, -48369.98, -82649.62, -31626.62, 0.00, 0.00, 0.00
191, -50694.09, -57034.68, -187500.02, -70594.54, -3336.82, -49070.53, -81897.34, -32655.50, 0.00, 0.00, 0.00
192, -49660.14, -56946.97, -187500.02, -74019.52, -3252.67, -49062.79, -83424.40, -31876.02, 0.00, 0.00, 0.00
193, -48672.73, -56074.42, -187500.02, -85953.79, -2939.95, -48365.06, -84232.73, -30889.19, 0.00, 0.00, 0.00
194, -49479.32, -56121.59, -187500.02, -84093.05, -2956.06, -48335.69, -82945.55, -31499.55, 0.00, 0.00, 0.00
195, -50676.57, -56967.66, -187500.02, -72129.50, -3322.97, -48997.39, -81884.63, -32627.49, 0.00, 0.00, 0.00
196, -50022.31, -57149.14, -187500.02, -72049.41, -3361.66, -49206.43, -83099.02, -32224.46, 0.00, 0.00, 0.00
197, -48784.27, -56273.67, -187500.02, -84281.43, -3020.91, -48530.20, -84272.82, -31064.32, 0.00, 0.00, 0.00
198, -49274.02, -56076.03, -187500.02, -85481.49, -2958.21, -48315.08, -83248.89, -31372.30, 0.10, 0.75, 0.66
199, -50498.11, -56796.65, -187500.02, -74237.83, -3242.55, -48855.30, -81942.70, -32490.49, 0.00, 0.00, 0.00
200, -50225.78, -57182.13, -187500.02, -70804.98, -3365.66, -49211.92, -82721.10, -32413.63, 0.00, 0.00, 0.00
201, -48866.93, -56386.83, -187500.02, -82451.31, -3058.66, -48623.78, -84163.16, -31182.34, 0.00, 0.00, 0.00
202, -49045.45, -55977.95, -187500.02, -86367.67, -2902.17, -48241.93, -83436.89, -31190.99, 0.00, 0.00, 0.00
203, -50305.71, -56603.54, -187500.02, -76152.57, -3145.38, -48678.48, -81968.63, -32298.00, 0.00, 0.00, 0.00
204, -50387.00, -57159.36, -187500.02, -69825.23, -3331.17, -49150.12, -82341.72, -32532.00, 0.00, 0.00, 0.00
205, -48930.14, -56449.17, -187500.02, -80271.41, -3009.35, -48643.86, -83950.06, -31254.38, 0.00, 0.00, 0.00
206, -48791.31, -55856.00, -187500.02, -86774.25, -2786.44, -48140.74, -83577.35, -30987.61, 0.00, 0.00, 0.00
207, -49987.98, -56333.97, -187500.02, -78178.22, -2968.67, -48469.18, -82042.01, -32010.94, 0.00, 0.00, 0.00
208, -50466.48, -57077.10, -187500.02, -69483.99, -3277.39, -49070.17, -82019.70, -32580.55, 0.10, 0.74, 0.65
209, -49178.35, -56658.70, -187500.02, -77996.34, -3105.01, -48788.92, -83765.75, -31503.80, 0.00, 0.00, 0.00
210, -48816.70, -56012.93, -187500.02, -86811.89, -2906.02, -48238.26, -83861.04, -31030.68, 0.00, 0.00, 0.00
211, -50004.11, -56436.16, -187500.02, -80331.83, -3107.90, -48518.35, -82414.92, -32027.05, 0.00, 0.00, 0.00
212, -50808.62, -57282.42, -187500.02, -69964.69, -3482.04, -49209.31, -82043.05, -32883.62, 0.00, 0.00, 0.00
213, -49682.14, -57080.50, -187500.02, -75896.22, -3397.15, -49120.32, -83742.73, -31996.10, 0.00, 0.00, 0.00
214, -49001.88, -56338.15, -187500.02, -86494.72, -3146.63, -48514.84, -84261.45, -31255.36, 0.00, 0.00, 0.00
215, -49956.28, -56532.63, -187500.02, -82446.09, -3248.69, -48616.70, -82884.16, -32016.46, 0.00, 0.00, 0.00
216, -50976.37, -57374.91, -187500.02, -71070.38, -3649.35, -49295.00, -82105.82, -33023.74, 0.00, 0.00, 0.00
217, -50114.44, -57405.47, -187500.02, -73921.17, -3659.90, -49403.07, -83602.95, -32416.22, 0.00, 0.00, 0.00
218, -49149.56, -56586.61, -187500.02, -85643.74, -3378.40, -48770.54, -84513.10, -31469.71, 0.09, 0.75, 0.65
219, -49888.89, -56569.89, -187500.02, -84204.74, -3370.84, -48699.18, -83280.85, -32011.50, 0.00, 0.00, 0.00
220, -51032.20, -57338.35, -187500.02, -72584.85, -3681.76, -49299.57, -82174.76, -33084.78, 0.00, 0.00, 0.00
221, -50462.10, -57557.39, -187500.02, -72175.70, -3760.99, -49545.59, -83332.71, -32744.90, 0.00, 0.00, 0.00
222, -49257.01, -56726.16, -187500.02, -84258.05, -3458.73, -48918.85, -84570.80, -31617.35, 0.00, 0.00, 0.00
223, -49718.77, -56496.63, -187500.02, -85566.74, -3361.43, -48685.52, -83566.48, -31893.50, 0.00, 0.00, 0.00
224, -50904.35, -57163.80, -187500.02, -74404.66, -3606.25, -49175.78, -82210.18, -32963.30, 0.00, 0.00, 0.00
225, -50658.68, -57562.20, -187500.02, -70820.65, -3739.56, -49542.17, -82963.91, -32903.82, 0.00, 0.00, 0.00
226, -49291.90, -56776.07, -187500.02, -82435.71, -3432.29, -48973.25, -84447.01, -31671.77, 0.00, 0.00, 0.00
227, -49458.69, -56349.30, -187500.02, -86477.58, -3274.24, -48585.89, -83734.52, -31670.48, 0.00, 0.00, 0.00
228, -50685.95, -56940.13, -187500.02, -76401.92, -3503.50, -49013.06, -82244.65, -32750.18, 0.10, 0.75, 0.65
229, -50794.83, -57509.34, -187500.02, -69955.68, -3700.02, -49491.48, -82580.33, -33006.84, 0.00, 0.00, 0.00
230, -49422.63, -56878.23, -187500.02, -80301.08, -3441.14, -49052.33, -84248.05, -31813.62, 0.00, 0.00, 0.00
231, -49306.40, -56312.91, -187500.02, -86916.25, -3238.45, -48559.48, -83926.64, -31557.71, 0.00, 0.00, 0.00
232, -50477.32, -56784.43, -187500.02, -78496.40, -3415.95, -48869.45, -82388.30, -32558.76, 0.00, 0.00, 0.00
233, -50951.02, -57500.42, -187500.02, -69727.80, -3698.81, -49453.81, -82316.95, -33124.03, 0.00, 0.00, 0.00
234, -49689.18, -57091.70, -187500.02, -78059.35, -3524.36, -49193.91, -84060.62, -32074.24, 0.00, 0.00, 0.00
235, -49295.86, -56437.30, -187500.02, -86926.98, -3312.30, -48647.61, -84178.23, -31582.54, 0.00, 0.00, 0.00
236, -50366.23, -56781.52, -187500.02, -80614.07, -3446.21, -48851.79, -82691.41, -32467.40, 0.00, 0.00, 0.00
237, -51134.55, -57579.14, -187500.02, -70203.16, -3767.07, -49481.89, -82230.48, -33272.34, 0.00, 0.00, 0.00
238, -50053.36, -57398.47, -187500.02, -75882.41, -3702.70, -49413.83, -83898.81, -32428.56, 0.10, 0.75, 0.65
239, -49352.56, -56657.49, -187500.02, -86489.94, -3475.65, -48826.56, -84447.88, -31693.07, 0.00, 0.00, 0.00
240, -50249.27, -56809.93, -187500.02, -82618.62, -3508.02, -48879.75, -83061.07, -32400.91, 0.00, 0.00, 0.00
241, -51240.95, -57610.99, -187500.02, -71261.77, -3827.49, -49497.87, -82220.76, -33366.32, 0.00, 0.00, 0.00
242, -50381.59, -57636.23, -187500.02, -73853.72, -3823.15, -49582.56, -83666.66, -32746.49, 0.00, 0.00, 0.00
243, -49404.59, -56829.11, -187500.02, -85543.27, -3564.81, -48956.18, -84600.12, -31790.62, 0.00, 0.00, 0.00
244, -50070.41, -56769.70, -187500.02, -84307.80, -3513.92, -48833.69, -83371.63, -32267.31, 0.00, 0.00, 0.00
245, -51201.07, -57515.37, -187500.02, -72748.09, -3810.32, -49391.45, -82218.63, -33314.34, 0.00, 0.00, 0.00
246, -50622.32, -57721.84, -187500.02, -72105.38, -3864.04, -49619.02, -83340.35, -32962.56, 0.00, 0.00, 0.00
247, -49428.60, -56914.49, -187500.02, -84104.25, -3587.81, -49004.57, -84601.62, -31844.04, 0.00, 0.00, 0.00
248, -49824.23, -56643.10, -187500.02, -85617.66, -3470.60, -48732.52, -83618.14, -32063.55, 0.09, 0.75, 0.64
249, -51006.66, -57282.63, -187500.02, -74540.20, -3709.20, -49198.78, -82227.64, -33124.28, 0.00, 0.00, 0.00
250, -50805.18, -57708.47, -187500.02, -70664.34, -3852.70, -49586.38, -82946.72, -33108.50, 0.00, 0.00, 0.00
251, -49494.36, -56987.98, -187500.02, -82183.16, -3591.41, -49061.86, -84485.16, -31927.48, 0.00, 0.00, 0.00
252, -49630.13, -56554.34, -187500.02, -86488.77, -3427.39, -48675.21, -83835.73, -31908.48, 0.00, 0.00, 0.00
253, -50805.65, -57089.55, -187500.02, -76593.59, -3607.01, -49063.29, -82318.05, -32942.25, 0.00, 0.00, 0.00
254, -50978.45, -57678.65, -187500.02, -69915.36, -3816.65, -49563.23, -82609.12, -33244.57, 0.00, 0.00, 0.00
255, -49647.94, -57111.95, -187500.02, -80095.93, -3619.66, -49163.89, -84308.05, -32091.16, 0.00, 0.00, 0.00
0, -49508.29, -56556.95, -187500.02, -86931.12, -3448.07, -48693.59, -84044.21, -31820.97, 0.00, 0.00, 0.00
1, -50670.24, -56987.07, -187500.02, -78698.68, -3581.98, -48982.04, -82492.48, -32797.59, 0.00, 0.00, 0.00
2, -51171.10, -57702.73, -187500.02, -69757.84, -3862.85, -49567.05, -82362.42, -33391.07, 0.00, 0.00, 0.00
3, -49897.63, -57319.50, -187500.02, -77857.18, -3719.20, -49327.26, -84111.65, -32351.85, 0.09, 0.76, 0.65
4, -49455.60, -56629.53, -187500.02, -86894.86, -3495.72, -48762.65, -84268.63, -31813.48, 0.00, 0.00, 0.00
5, -50487.70, -56887.33, -187500.02, -80790.98, -3552.79, -48908.72, -82744.26, -32649.13, 0.00, 0.00, 0.00
6, -51249.08, -57642.89, -187500.02, -70236.22, -3852.97, -49516.64, -82204.30, -33442.48, 0.00, 0.00, 0.00
7, -50177.99, -57487.03, -187500.02, -75681.95, -3808.18, -49468.59, -83861.55, -32607.95, 0.00, 0.00, 0.00
8, -49473.62, -56741.18, -187500.02, -86393.73, -3570.45, -48870.10, -84445.55, -31863.51, 0.00, 0.00, 0.00
9, -50361.74, -56859.86, -187500.02, -82716.63, -3589.44, -48898.48, -83059.44, -32559.40, 0.00, 0.00, 0.00
10, -51350.07, -57633.77, -187500.02, -71247.23, -3892.35, -49483.65, -82162.88, -33505.46, 0.00, 0.00, 0.00
11, -50510.34, -57687.14, -187500.02, -73645.62, -3908.00, -49596.66, -83601.40, -32896.89, 0.00, 0.00, 0.00
12, -49523.98, -56891.94, -187500.02, -85448.28, -3650.29, -48989.86, -84583.91, -31923.97, 0.00, 0.00, 0.00
13, -50198.46, -56824.04, -187500.02, -84398.06, -3612.24, -48876.56, -83371.47, -32409.42, 0.11, 0.74, 0.65
14, -51340.75, -57562.65, -187500.02, -72713.38, -3887.12, -49430.19, -82185.15, -33465.68, 0.00, 0.00, 0.00
15, -50827.08, -57818.80, -187500.02, -71918.61, -3967.12, -49685.63, -83298.71, -33158.57, 0.00, 0.00, 0.00
16, -49662.31, -57056.78, -187500.02, -84005.54, -3727.71, -49120.35, -84609.95, -32083.04, 0.00, 0.00, 0.00
17, -50025.53, -56786.75, -187500.02, -85713.33, -3616.58, -48867.19, -83651.98, -32294.56, 0.00, 0.00, 0.00
18, -51207.49, -57421.56, -187500.02, -74600.30, -3830.64, -49329.34, -82233.54, -33344.09, 0.00, 0.00, 0.00
19, -51056.23, -57875.86, -187500.02, -70629.21, -4005.03, -49744.68, -82940.26, -33366.06, 0.00, 0.00, 0.00
20, -49743.85, -57183.72, -187500.02, -82172.97, -3782.16, -49251.84, -84508.52, -32197.55, 0.00, 0.00, 0.00
21, -49870.85, -56747.93, -187500.02, -86599.02, -3628.20, -48859.10, -83864.50, -32166.06, 0.00, 0.00, 0.00
22, -51080.08, -57295.23, -187500.02, -76675.63, -3800.49, -49229.76, -82322.08, -33212.52, 0.00, 0.00, 0.00
23, -51244.46, -57889.38, -187500.02, -69859.68, -4016.61, -49734.69, -82591.99, -33510.72, 0.11, 0.75, 0.65
24, -49893.09, -57315.23, -187500.02, -80048.03, -3811.40, -49348.25, -84313.82, -32349.25, 0.00, 0.00, 0.00
25, -49733.17, -56738.49, -187500.02, -87022.54, -3607.06, -48841.62, -84063.03, -32060.09, 0.00, 0.00, 0.00
26, -50850.02, -57130.52, -187500.02, -78828.77, -3715.24, -49084.34, -82483.63, -32997.34, 0.00, 0.00, 0.00
27, -51361.76, -57842.36, -187500.02, -69701.56, -3999.78, -49659.52, -82319.15, -33580.90, 0.00, 0.00, 0.00
28, -50110.24, -57472.28, -187500.02, -77763.41, -3867.99, -49445.28, -84095.82, -32556.03, 0.00, 0.00, 0.00
29, -49668.17, -56793.41, -187500.02, -86915.36, -3659.25, -48895.38, -84287.80, -32032.20, 0.00, 0.00, 0.00
30, -50671.78, -57043.44, -187500.02, -80903.41, -3717.41, -49026.88, -82765.96, -32848.97, 0.00, 0.00, 0.00
31, -51463.23, -57813.93, -187500.02, -70186.64, -4021.21, -49626.48, -82194.34, -33651.09, 0.00, 0.00, 0.00
32, -50389.52, -57657.46, -187500.02, -75535.13, -3951.72, -49578.07, -83867.85, -32814.64, 0.00, 0.00, 0.00
33, -49635.58, -56883.55, -187500.02, -86356.56, -3693.40, -48963.06, -84478.70, -32031.28, 0.12, 0.76, 0.64
34, -50472.83, -56964.56, -187500.02, -82810.23, -3697.18, -48947.91, -83069.12, -32680.84, 0.00, 0.00, 0.00
35, -51480.91, -57737.48, -187500.02, -71266.95, -4006.21, -49538.37, -82136.35, -33652.83, 0.00, 0.00, 0.00
36, -50681.37, -57810.37, -187500.02, -73528.90, -4027.54, -49678.63, -83589.93, -33094.98, 0.00, 0.00, 0.00
37, -49694.12, -57025.80, -187500.02, -85345.30, -3774.63, -49080.92, -84615.79, -32134.23, 0.00, 0.00, 0.00
38, -50325.60, -56939.10, -187500.02, -84448.22, -3721.77, -48941.29, -83414.18, -32580.95, 0.00, 0.00, 0.00
39, -51456.02, -57663.63, -187500.02, -72841.72, -3996.40, -49476.16, -82192.88, -33624.55, 0.00, 0.00, 0.00
40, -50968.41, -57938.65, -187500.02, -71848.92, -4091.17, -49763.59, -83292.41, -33347.53, 0.00, 0.00, 0.00
41, -49812.98, -57189.04, -187500.02, -83873.06, -3844.84, -49222.41, -84648.34, -32268.14, 0.00, 0.00, 0.00
42, -50210.58, -56925.33, -187500.02, -85742.88, -3745.88, -48945.51, -83706.90, -32483.50, 0.00, 0.00, 0.00
43, -51404.34, -57566.83, -187500.02, -74758.58, -3980.80, -49391.30, -82265.26, -33549.95, 0.12, 0.76, 0.64
44, -51253.40, -58024.03, -187500.02, -70617.34, -4157.89, -49825.70, -82943.74, -33587.70, 0.00, 0.00, 0.00
45, -49965.45, -57355.07, -187500.02, -82031.28, -3929.48, -49384.59, -84559.06, -32449.50, 0.00, 0.00, 0.00
46, -50094.97, -56935.59, -187500.02, -86593.25, -3792.44, -49005.73, -83967.05, -32414.50, 0.00, 0.00, 0.00
47, -51252.53, -57445.01, -187500.02, -76871.55, -3960.30, -49330.23, -82406.30, -33414.18, 0.00, 0.00, 0.00
48, -51458.88, -58032.04, -187500.02, -69943.34, -4180.80, -49828.27, -82637.41, -33754.20, 0.00, 0.00, 0.00
49, -50181.25, -57519.48, -187500.02, -79915.17, -3991.22, -49509.61, -84415.72, -32676.35, 0.00, 0.00, 0.00
50, -49991.46, -56945.92, -187500.02, -86968.58, -3786.14, -49016.41, -84229.69, -32366.80, 0.00, 0.00, 0.00
51, -51077.07, -57323.33, -187500.02, -79032.73, -3913.16, -49245.12, -82653.77, -33287.34, 0.00, 0.00, 0.00
52, -51575.11, -58015.61, -187500.02, -69895.87, -4180.63, -49800.27, -82435.33, -33848.96, 0.00, 0.00, 0.00
53, -50349.56, -57656.37, -187500.02, -77711.38, -4029.39, -49602.97, -84201.39, -32822.73, 0.11, 0.77, 0.64
54, -49889.00, -56983.96, -187500.02, -86859.99, -3814.46, -49045.74, -84432.35, -32291.32, 0.00, 0.00, 0.00
55, -50833.59, -57204.82, -187500.02, -81104.13, -3866.32, -49111.77, -82908.85, -33062.16, 0.00, 0.00, 0.00
56, -51606.80, -57936.08, -187500.02, -70492.80, -4150.54, -49675.77, -82281.75, -33850.09, 0.00, 0.00, 0.00
57, -50605.18, -57812.61, -187500.02, -75537.31, -4096.90, -49696.02, -83947.67, -33090.68, 0.00, 0.00, 0.00
58, -49846.42, -57066.93, -187500.02, -86278.54, -3839.47, -49115.90, -84630.50, -32314.59, 0.00, 0.00, 0.00
59, -50616.30, -57113.76, -187500.02, -82985.37, -3833.88, -49046.92, -83238.61, -32899.69, 0.00, 0.00, 0.00
60, -51594.69, -57854.02, -187500.02, -71615.50, -4144.19, -49591.07, -82256.48, -33843.16, 0.00, 0.00, 0.00
61, -50854.62, -57958.45, -187500.02, -73546.65, -4167.06, -49781.38, -83683.90, -33347.28, 0.00, 0.00, 0.00
62, -49882.54, -57204.30, -187500.02, -85204.13, -3900.63, -49220.51, -84769.26, -32407.62, 0.00, 0.00, 0.00
63, -50467.15, -57105.64, -187500.02, -84540.71, -3854.87, -49048.15, -83594.45, -32815.82, 0.07, 0.77, 0.64
64, -51536.95, -57778.03, -187500.02, -73175.01, -4119.07, -49516.71, -82321.23, -33808.40, 0.00, 0.00, 0.00
65, -51097.58, -58063.06, -187500.02, -71897.22, -4207.20, -49831.34, -83368.61, -33582.02, 0.00, 0.00, 0.00
66, -49951.05, -57344.89, -187500.02, -83703.62, -3951.70, -49337.45, -84782.91, -32530.88, 0.00, 0.00, 0.00
67, -50289.61, -57066.26, -187500.02, -85737.38, -3847.54, -49037.56, -83882.20, -32699.28, 0.00, 0.00, 0.00
68, -51429.51, -57669.73, -187500.02, -75054.32, -4093.43, -49437.86, -82414.50, -33712.75, 0.00, 0.00, 0.00
69, -51331.54, -58133.91, -187500.02, -70732.74, -4261.05, -49873.02, -83035.70, -33787.16, 0.00, 0.00, 0.00
70, -50107.25, -57515.11, -187500.02, -81856.49, -4029.44, -49485.24, -84690.87, -32703.44, 0.00, 0.00, 0.00
71, -50169.32, -57066.28, -187500.02, -86550.11, -3868.64, -49069.27, -84133.53, -32613.38, 0.00, 0.00, 0.00
72, -51314.11, -57552.05, -187500.02, -77123.02, -4072.71, -49366.24, -82537.84, -33587.94, 0.00, 0.00, 0.00
73, -51550.32, -58145.42, -187500.02, -70108.30, -4292.29, -49874.83, -82700.40, -33937.50, 0.07, 0.77, 0.64
74, -50298.33, -57646.18, -187500.02, -79772.08, -4076.15, -49593.07, -84483.58, -32873.76, 0.00, 0.00, 0.00
75, -50101.23, -57073.48, -187500.02, -86876.31, -3891.55, -49096.88, -84331.27, -32554.76, 0.00, 0.00, 0.00
76, -51154.69, -57426.93, -187500.02, -79227.81, -4030.49, -49275.45, -82728.85, -33420.80, 0.00, 0.00, 0.00
77, -51685.73, -58095.40, -187500.02, -70120.20, -4299.11, -49821.21, -82437.95, -34007.86, 0.00, 0.00, 0.00
78, -50537.83, -57792.27, -187500.02, -77595.11, -4151.59, -49704.82, -84223.80, -33087.38, 0.00, 0.00, 0.00
79, -50046.05, -57118.03, -187500.02, -86750.54, -3926.62, -49156.83, -84509.22, -32529.30, 0.00, 0.00, 0.00
80, -50969.39, -57325.74, -187500.02, -81263.25, -4001.05, -49212.86, -82984.00, -33271.22, 0.00, 0.00, 0.00
81, -51759.13, -58041.29, -187500.02, -70742.02, -4288.65, -49762.83, -82305.00, -34065.44, 0.00, 0.00, 0.00
82, -50806.36, -57947.57, -187500.02, -75476.50, -4214.44, -49819.89, -83965.13, -33348.24, 0.00, 0.00, 0.00
83, -50038.45, -57206.43, -187500.02, -86162.10, -3949.98, -49247.86, -84697.17, -32566.76, 0.06, 0.77, 0.63
84, -50793.98, -57251.02, -187500.02, -83107.12, -3974.27, -49168.74, -83318.41, -33145.94, 0.00, 0.00, 0.00
85, -51762.26, -57972.29, -187500.02, -71899.73, -4279.55, -49694.43, -82300.33, -34084.20, 0.00, 0.00, 0.00
86, -51068.77, -58082.32, -187500.02, -73563.37, -4290.42, -49901.59, -83697.00, -33621.36, 0.00, 0.00, 0.00
87, -50099.80, -57341.86, -187500.02, -85118.91, -4021.10, -49367.11, -84838.28, -32675.66, 0.00, 0.00, 0.00
88, -50646.52, -57229.18, -187500.02, -84659.42, -3987.82, -49170.28, -83682.96, -33043.52, 0.00, 0.00, 0.00
89, -51711.70, -57898.68, -187500.02, -73468.28, -4275.75, -49631.09, -82395.61, -34027.64, 0.00, 0.00, 0.00
90, -51310.51, -58197.30, -187500.02, -71976.59, -4368.20, -49964.53, -83426.81, -33833.16, 0.00, 0.00, 0.00
91, -50189.21, -57509.16, -187500.02, -83624.94, -4105.03, -49495.34, -84903.91, -32802.59, 0.00, 0.00, 0.00
92, -50491.65, -57211.12, -187500.02, -85849.56, -4000.40, -49161.59, -84044.10, -32937.46, 0.00, 0.00, 0.00
93, -51601.59, -57794.21, -187500.02, -75331.01, -4263.44, -49526.12, -82556.55, -33916.71, 0.04, 0.76, 0.63
94, -51526.43, -58261.61, -187500.02, -70848.86, -4414.51, -49967.84, -83165.56, -34013.41, 0.00, 0.00, 0.00
95, -50291.20, -57643.27, -187500.02, -81800.68, -4159.99, -49584.55, -84860.18, -32929.08, 0.00, 0.00, 0.00
96, -50339.55, -57203.57, -187500.02, -86612.27, -4012.83, -49160.25, -84348.53, -32826.26, 0.00, 0.00, 0.00
97, -51447.97, -57688.24, -187500.02, -77375.03, -4219.03, -49429.59, -82765.04, -33783.79, 0.00, 0.00, 0.00
98, -51698.27, -58287.40, -187500.02, -70243.17, -4439.06, -49930.51, -82899.09, -34148.03, 0.00, 0.00, 0.00
99, -50448.38, -57805.32, -187500.02, -79692.08, -4207.76, -49670.56, -84705.89, -33100.05, 0.00, 0.00, 0.00
100, -50196.12, -57208.30, -187500.02, -86917.03, -3999.98, -49157.72, -84590.82, -32745.66, 0.00, 0.00, 0.00
101, -51229.50, -57552.66, -187500.02, -79452.83, -4140.88, -49313.07, -82978.66, -33602.56, 0.00, 0.00, 0.00
102, -51768.40, -58229.80, -187500.02, -70247.22, -4399.34, -49841.66, -82645.82, -34195.02, 0.00, 0.00, 0.00
103, -50643.17, -57956.71, -187500.02, -77462.47, -4261.40, -49750.22, -84440.66, -33292.68, 0.02, 0.74, 0.65
104, -50118.73, -57263.04, -187500.02, -86713.05, -4015.22, -49189.55, -84783.27, -32699.75, 0.00, 0.00, 0.00
105, -51026.82, -57438.30, -187500.02, -81409.84, -4088.04, -49211.43, -83241.73, -33416.13, 0.00, 0.00, 0.00
106, -51816.73, -58152.82, -187500.02, -70832.38, -4386.19, -49751.11, -82512.63, -34208.98, 0.00, 0.00, 0.00
107, -50872.68, -58070.03, -187500.02, -75325.09, -4311.27, -49816.49, -84160.69, -33503.70, 0.00, 0.00, 0.00
108, -50106.95, -57342.59, -187500.02, -86069.86, -4057.40, -49263.67, -84941.12, -32723.89, 0.00, 0.00, 0.00
109, -50856.50, -57372.03, -187500.02, -83201.59, -4077.49, -49178.66, -83562.89, -33282.15, 0.00, 0.00, 0.00
110, -51834.95, -58084.89, -187500.02, -71979.79, -4375.85, -49688.78, -82492.22, -34210.71, 0.00, 0.00, 0.00
111, -51136.14, -58198.75, -187500.02, -73399.93, -4368.94, -49893.54, -83852.48, -33738.71, 0.00, 0.00, 0.00
112, -50165.56, -57475.43, -187500.02, -84957.77, -4118.29, -49368.77, -85018.50, -32800.71, 0.00, 0.00, 0.00
113, -50717.80, -57358.69, -187500.02, -84704.84, -4086.93, -49170.17, -83875.59, -33160.98, 0.02, 0.74, 0.65
114, -51791.38, -58007.76, -187500.02, -73570.66, -4358.03, -49605.14, -82535.18, -34134.33, 0.00, 0.00, 0.00
115, -51420.66, -58319.36, -187500.02, -71843.55, -4446.97, -49948.19, -83518.20, -33966.16, 0.00, 0.00, 0.00
116, -50300.97, -57645.39, -187500.02, -83459.69, -4200.72, -49504.73, -85011.73, -32939.72, 0.00, 0.00, 0.00
117, -50606.18, -57350.75, -187500.02, -85892.54, -4110.89, -49188.07, -84167.30, -33072.40, 0.00, 0.00, 0.00
118, -51735.77, -57915.98, -187500.02, -75490.98, -4352.96, -49541.39, -82641.77, -34054.42, 0.00, 0.00, 0.00
119, -51706.87, -58401.51, -187500.02, -70770.18, -4525.89, -50003.24, -83184.00, -34186.14, 0.00, 0.00, 0.00
120, -50459.06, -57796.71, -187500.02, -81635.50, -4271.06, -49639.22, -84892.50, -33097.28, 0.00, 0.00, 0.00
121, -50492.14, -57341.88, -187500.02, -86684.17, -4124.21, -49216.75, -84399.49, -32982.21, 0.00, 0.00, 0.00
122, -51601.01, -57804.76, -187500.02, -77588.36, -4321.22, -49483.50, -82780.76, -33931.36, 0.00, 0.00, 0.00
123, -51871.25, -58402.13, -187500.02, -70289.84, -4547.33, -50000.79, -82856.91, -34318.55, 0.03, 0.75, 0.64
124, -50649.63, -57952.57, -187500.02, -79604.38, -4334.05, -49768.08, -84673.63, -33292.23, 0.00, 0.00, 0.00
125, -50434.16, -57386.02, -187500.02, -87011.70, -4151.21, -49273.35, -84603.23, -32951.48, 0.00, 0.00, 0.00
126, -51464.24, -57716.83, -187500.02, -79714.77, -4289.46, -49435.02, -82997.43, -33809.88, 0.00, 0.00, 0.00
127, -51989.84, -58373.16, -187500.02, -70406.18, -4544.11, -49967.48, -82623.20, -34417.53, 0.00, 0.00, 0.00
128, -50875.59, -58106.15, -187500.02, -77433.52, -4410.65, -49887.66, -84392.23, -33532.73, 0.00, 0.00, 0.00
129, -50355.48, -57434.13, -187500.02, -86847.21, -4176.36, -49335.37, -84769.52, -32936.32, 0.00, 0.00, 0.00
130, -51225.66, -57592.42, -187500.02, -81767.39, -4241.40, -49356.83, -83240.84, -33619.97, 0.00, 0.00, 0.00
131, -52027.95, -58298.13, -187500.02, -71113.05, -4531.23, -49898.10, -82469.89, -34414.44, 0.00, 0.00, 0.00
132, -51122.19, -58249.61, -187500.02, -75313.69, -4475.71, -49982.54, -84080.69, -33745.86, 0.00, 0.00, 0.00
133, -50353.16, -57535.22, -187500.02, -86162.69, -4230.63, -49420.73, -84903.27, -32968.02, 0.03, 0.75, 0.62
134, -51056.39, -57540.81, -187500.02, -83553.14, -4208.97, -49283.16, -83560.20, -33493.46, 0.00, 0.00, 0.00
135, -52019.04, -58228.80, -187500.02, -72315.58, -4494.96, -49756.81, -82455.16, -34413.30, 0.00, 0.00, 0.00
136, -51366.52, -58373.41, -187500.02, -73420.47, -4537.09, -49982.66, -83771.90, -33989.31, 0.00, 0.00, 0.00
137, -50367.80, -57644.45, -187500.02, -85044.67, -4284.09, -49461.19, -84972.79, -33036.23, 0.00, 0.00, 0.00
138, -50894.16, -57491.61, -187500.02, -85024.71, -4230.04, -49243.33, -83844.95, -33381.37, 0.00, 0.00, 0.00
139, -51981.89, -58141.27, -187500.02, -73899.09, -4494.51, -49690.14, -82486.34, -34371.42, 0.00, 0.00, 0.00
140, -51630.07, -58468.52, -187500.02, -71887.56, -4590.87, -50046.14, -83415.59, -34226.13, 0.00, 0.00, 0.00
141, -50500.14, -57811.18, -187500.02, -83493.91, -4362.14, -49614.75, -84929.02, -33203.27, 0.00, 0.00, 0.00
142, -50760.32, -57489.15, -187500.02, -86171.63, -4241.38, -49273.17, -84120.61, -33300.43, 0.00, 0.00, 0.00
143, -51855.91, -58021.71, -187500.02, -75827.33, -4444.80, -49602.70, -82594.63, -34265.51, 0.02, 0.77, 0.60
144, -51844.45, -58503.32, -187500.02, -70835.88, -4618.41, -50047.41, -83102.71, -34401.75, 0.00, 0.00, 0.00
145, -50664.21, -57962.03, -187500.02, -81610.55, -4428.82, -49725.84, -84859.98, -33370.86, 0.00, 0.00, 0.00
146, -50685.24, -57515.60, -187500.02, -86903.06, -4273.85, -49300.44, -84457.16, -33249.38, 0.00, 0.00, 0.00
147, -51761.03, -57938.78, -187500.02, -77901.77, -4427.99, -49535.53, -82867.50, -34168.69, 0.00, 0.00, 0.00
148, -52038.41, -58522.65, -187500.02, -70335.53, -4645.56, -50039.72, -82920.27, -34562.70, 0.00, 0.00, 0.00
149, -50834.95, -58096.00, -187500.02, -79503.81, -4488.27, -49830.80, -84759.20, -33564.52, 0.00, 0.00, 0.00
150, -50559.96, -57496.29, -187500.02, -87185.32, -4277.70, -49311.90, -84755.63, -33174.64, 0.00, 0.00, 0.00
151, -51575.78, -57796.42, -187500.02, -80011.28, -4383.56, -49440.47, -83153.27, -34000.06, 0.00, 0.00, 0.00
152, -52175.27, -58490.24, -187500.02, -70429.83, -4660.54, -49995.17, -82760.17, -34653.70, 0.00, 0.00, 0.00
153, -51084.44, -58259.64, -187500.02, -77281.22, -4559.42, -49935.67, -84554.48, -33789.49, 0.00, 0.00, 0.00
154, -50530.52, -57575.32, -187500.02, -86940.51, -4330.81, -49382.73, -84990.09, -33176.78, 0.03, 0.79, 0.60
155, -51407.07, -57722.35, -187500.02, -81993.75, -4367.82, -49388.88, -83474.87, -33862.27, 0.00, 0.00, 0.00
156, -52251.94, -58444.36, -187500.02, -71126.91, -4665.86, -49941.37, -82677.85, -34693.24, 0.00, 0.00, 0.00
157, -51358.65, -58417.38, -187500.02, -75138.90, -4635.15, -50044.41, -84294.37, -34037.57, 0.00, 0.00, 0.00
158, -50529.96, -57666.65, -187500.02, -86231.10, -4376.29, -49462.31, -85146.89, -33200.99, 0.00, 0.00, 0.00
159, -51238.13, -57659.36, -187500.02, -83770.18, -4364.74, -49349.97, -83795.62, -33721.72, 0.00, 0.00, 0.00
160, -52234.95, -58351.62, -187500.02, -72365.96, -4638.59, -49850.73, -82658.85, -34660.74, 0.00, 0.00, 0.00
161, -51605.35, -58517.11, -187500.02, -73237.68, -4677.15, -50090.95, -83958.34, -34249.53, 0.00, 0.00, 0.00
162, -50574.66, -57770.14, -187500.02, -85031.46, -4420.04, -49557.86, -85191.81, -33269.88, 0.00, 0.00, 0.00
163, -51066.96, -57594.09, -187500.02, -85257.22, -4343.84, -49326.95, -84087.26, -33591.79, 0.00, 0.00, 0.00
164, -52162.51, -58232.42, -187500.02, -74015.99, -4587.00, -49762.85, -82698.92, -34586.89, 0.03, 0.81, 0.60
165, -51849.88, -58580.59, -187500.02, -71692.37, -4703.39, -50119.34, -83599.66, -34466.75, 0.00, 0.00, 0.00
166, -50703.46, -57926.98, -187500.02, -83371.47, -4495.09, -49684.86, -85150.17, -33433.16, 0.00, 0.00, 0.00
167, -50942.66, -57597.00, -187500.02, -86303.23, -4378.30, -49334.63, -84375.35, -33512.91, 0.00, 0.00, 0.00
168, -52045.66, -58132.01, -187500.02, -75910.14, -4569.64, -49675.97, -82825.91, -34484.32, 0.00, 0.00, 0.00
169, -52070.24, -58637.27, -187500.02, -70568.34, -4743.06, -50142.09, -83284.74, -34651.37, 0.00, 0.00, 0.00
170, -50867.74, -58089.32, -187500.02, -81280.28, -4560.34, -49822.91, -85039.69, -33602.52, 0.00, 0.00, 0.00
171, -50854.17, -57624.49, -187500.02, -86816.61, -4406.83, -49387.47, -84647.64, -33452.25, 0.00, 0.00, 0.00
172, -51903.12, -58042.83, -187500.02, -77835.99, -4544.06, -49602.50, -83017.98, -34351.30, 0.00, 0.00, 0.00
173, -52222.28, -58656.94, -187500.02, -69924.32, -4767.38, -50105.23, -82993.74, -34770.42, 0.00, 0.00, 0.00
174, -51048.25, -58259.42, -187500.02, -78911.91, -4611.32, -49900.58, -84822.48, -33790.20, 0.02, 0.81, 0.62
175, -50721.58, -57634.71, -187500.02, -86793.88, -4410.18, -49381.30, -84850.68, -33379.29, 0.00, 0.00, 0.00
176, -51711.12, -57926.09, -187500.02, -79687.01, -4519.32, -49527.08, -83252.49, -34202.21, 0.00, 0.00, 0.00
177, -52308.20, -58605.20, -187500.02, -69836.66, -4766.15, -50059.39, -82810.20, -34830.75, 0.00, 0.00, 0.00
178, -51239.61, -58383.80, -187500.02, -76431.59, -4679.65, -49998.48, -84603.16, -33973.42, 0.00, 0.00, 0.00
179, -50658.57, -57698.90, -187500.02, -86300.06, -4452.67, -49439.89, -85114.12, -33331.28, 0.00, 0.00, 0.00
180, -51528.35, -57841.95, -187500.02, -81518.35, -4489.33, -49454.21, -83636.52, -34011.22, 0.00, 0.00, 0.00
181, -52356.12, -58540.49, -187500.02, -70472.01, -4757.73, -49985.25, -82818.98, -34825.25, 0.00, 0.00, 0.00
182, -51492.07, -58523.39, -187500.02, -74195.83, -4743.42, -50087.26, -84438.20, -34182.79, 0.00, 0.00, 0.00
183, -50646.70, -57782.97, -187500.02, -85447.63, -4490.55, -49516.11, -85381.63, -33331.08, 0.00, 0.00, 0.00
184, -51323.67, -57751.00, -187500.02, -83259.77, -4463.11, -49383.09, -84074.25, -33814.46, 0.01, 0.73, 0.63
185, -52341.50, -58445.83, -187500.02, -71738.15, -4737.99, -49884.75, -82910.55, -34759.58, 0.00, 0.00, 0.00
186, -51732.64, -58616.26, -187500.02, -72314.44, -4777.84, -50129.69, -84201.30, -34364.13, 0.00, 0.00, 0.00
187, -50686.51, -57877.29, -187500.02, -84225.59, -4525.76, -49599.50, -85500.96, -33366.19, 0.00, 0.00, 0.00
188, -51169.51, -57695.57, -187500.02, -84741.49, -4469.77, -49374.38, -84430.49, -33660.65, 0.00, 0.00, 0.00
189, -52281.53, -58334.72, -187500.02, -73497.61, -4721.49, -49832.16, -83017.62, -34662.66, 0.00, 0.00, 0.00
190, -51988.68, -58696.44, -187500.02, -70921.75, -4830.52, -50197.39, -83884.53, -34548.46, 0.00, 0.00, 0.00
191, -50805.22, -58033.15, -187500.02, -82747.74, -4586.04, -49744.75, -85471.30, -33471.22, 0.00, 0.00, 0.00
192, -51022.95, -57687.93, -187500.02, -86036.29, -4468.76, -49405.80, -84700.21, -33537.81, 0.00, 0.00, 0.00
193, -52150.98, -58230.67, -187500.02, -75715.01, -4677.88, -49769.40, -83096.14, -34531.57, 0.00, 0.00, 0.00
194, -52221.25, -58749.70, -187500.02, -70174.64, -4866.58, -50235.05, -83488.37, -34725.87, 0.03, 0.73, 0.65
195, -51004.94, -58220.61, -187500.02, -80995.14, -4681.66, -49916.38, -85262.09, -33677.51, 0.00, 0.00, 0.00
196, -50875.32, -57705.32, -187500.02, -86934.73, -4502.83, -49468.03, -84875.78, -33444.82, 0.00, 0.00, 0.00
197, -51944.25, -58112.84, -187500.02, -78103.95, -4646.46, -49704.60, -83189.01, -34348.44, 0.00, 0.00, 0.00
198, -52308.80, -58738.01, -187500.02, -70007.38, -4879.88, -50223.54, -83099.83, -34805.60, 0.00, 0.00, 0.00
199, -51129.23, -58361.95, -187500.02, -79080.27, -4749.95, -50044.46, -84958.13, -33831.89, 0.00, 0.00, 0.00
200, -50774.54, -57743.70, -187500.02, -87417.89, -4527.30, -49522.90, -85042.20, -33386.15, 0.00, 0.00, 0.00
201, -51741.49, -57992.31, -187500.02, -80561.05, -4591.32, -49621.18, -83394.83, -34171.05, 0.00, 0.00, 0.00
202, -52397.79, -58691.19, -187500.02, -70513.38, -4868.10, -50182.73, -82869.94, -34861.90, 0.00, 0.00, 0.00
203, -51337.24, -58498.40, -187500.02, -77085.84, -4785.42, -50146.02, -84669.91, -34030.66, 0.00, 0.00, 0.00
204, -50731.24, -57798.79, -187500.02, -87310.41, -4553.14, -49587.10, -85202.88, -33371.31, 0.03, 0.75, 0.68
205, -51565.41, -57911.18, -187500.02, -82704.96, -4561.23, -49586.38, -83670.45, -34020.74, 0.00, 0.00, 0.00
206, -52433.70, -58621.85, -187500.02, -71413.44, -4828.47, -50126.45, -82746.65, -34868.03, 0.00, 0.00, 0.00
207, -51581.39, -58626.57, -187500.02, -74997.74, -4819.01, -50237.38, -84343.50, -34250.16, 0.00, 0.00, 0.00
208, -50748.11, -57905.32, -187500.02, -86527.04, -4609.42, -49687.73, -85317.90, -33418.52, 0.00, 0.00, 0.00
209, -51406.80, -57854.63, -187500.02, -84472.70, -4569.99, -49555.29, -83988.53, -33882.63, 0.00, 0.00, 0.00
210, -52367.70, -58499.81, -187500.02, -72724.30, -4805.80, -50021.35, -82746.55, -34776.39, 0.00, 0.00, 0.00
211, -51782.08, -58702.81, -187500.02, -73031.35, -4870.13, -50286.39, -84027.16, -34410.44, 0.00, 0.00, 0.00
212, -50748.49, -57999.94, -187500.02, -85204.13, -4651.17, -49782.07, -85422.24, -33439.44, 0.00, 0.00, 0.00
213, -51201.88, -57782.52, -187500.02, -85904.79, -4554.08, -49520.29, -84368.16, -33702.32, 0.00, 0.00, 0.00
214, -52316.09, -58392.81, -187500.02, -74414.50, -4772.37, -49939.47, -82890.41, -34691.92, 0.04, 0.71, 0.71
215, -52071.98, -58799.41, -187500.02, -71426.54, -4910.68, -50336.68, -83766.34, -34631.66, 0.00, 0.00, 0.00
216, -50841.86, -58140.73, -187500.02, -83421.65, -4700.93, -49881.89, -85471.70, -33527.66, 0.00, 0.00, 0.00
217, -51040.65, -57787.46, -187500.02, -86929.71, -4581.01, -49521.88, -84767.69, -33554.64, 0.00, 0.00, 0.00
218, -52165.24, -58294.91, -187500.02, -76403.16, -4748.52, -49836.63, -83133.60, -34510.89, 0.00, 0.00, 0.00
219, -52262.76, -58843.58, -187500.02, -70385.06, -4950.17, -50322.61, -83522.41, -34734.54, 0.00, 0.00, 0.00
220, -51032.20, -58334.95, -187500.02, -81316.56, -4795.01, -50019.67, -85433.98, -33666.02, 0.00, 0.00, 0.00
221, -50939.76, -57823.67, -187500.02, -87504.22, -4623.77, -49569.77, -85139.22, -33438.16, 0.00, 0.00, 0.00
222, -52012.71, -58206.71, -187500.02, -78483.23, -4732.47, -49787.39, -83430.01, -34326.71, 0.00, 0.00, 0.00
223, -52412.29, -58864.19, -187500.02, -69904.66, -4979.39, -50335.12, -83332.38, -34805.89, 0.00, 0.00, 0.00
224, -51193.23, -58498.92, -187500.02, -79014.11, -4838.95, -50136.01, -85289.31, -33779.68, 0.04, 0.66, 0.74
225, -50841.77, -57869.69, -187500.02, -87608.87, -4647.42, -49610.45, -85418.17, -33304.61, 0.00, 0.00, 0.00
226, -51822.45, -58098.62, -187500.02, -80587.94, -4705.76, -49725.97, -83727.64, -34080.29, 0.00, 0.00, 0.00
227, -52508.67, -58809.67, -187500.02, -70083.09, -4967.38, -50283.98, -83150.97, -34782.26, 0.00, 0.00, 0.00
228, -51442.25, -58656.65, -187500.02, -76625.35, -4900.15, -50247.50, -85019.57, -33946.06, 0.00, 0.00, 0.00
229, -50794.32, -57944.86, -187500.02, -87191.27, -4681.89, -49683.12, -85617.21, -33252.04, 0.00, 0.00, 0.00
230, -51618.56, -58016.61, -187500.02, -82578.83, -4666.33, -49658.22, -84034.94, -33873.04, 0.00, 0.00, 0.00
231, -52519.38, -58732.36, -187500.02, -70914.17, -4931.49, -50208.54, -83036.55, -34739.80, 0.00, 0.00, 0.00
232, -51683.64, -58782.56, -187500.02, -74382.73, -4932.09, -50346.43, -84664.65, -34146.67, 0.00, 0.00, 0.00
233, -50800.86, -58046.16, -187500.02, -86299.45, -4719.79, -49800.09, -85710.64, -33278.86, 0.00, 0.00, 0.00
234, -51442.40, -57963.23, -187500.02, -84343.16, -4670.71, -49675.77, -84333.62, -33734.79, 0.02, 0.65, 0.75
235, -52486.79, -58634.26, -187500.02, -72296.00, -4910.01, -50179.44, -83006.87, -34700.23, 0.00, 0.00, 0.00
236, -51935.82, -58891.39, -187500.02, -72411.87, -4988.48, -50461.43, -84280.29, -34385.90, 0.00, 0.00, 0.00
237, -50859.43, -58191.07, -187500.02, -84932.98, -4776.05, -49935.47, -85720.08, -33390.80, 0.00, 0.00, 0.00
238, -51304.67, -57944.48, -187500.02, -85816.95, -4684.95, -49687.08, -84628.33, -33652.74, 0.00, 0.00, 0.00
239, -52393.76, -58512.11, -187500.02, -74149.00, -4860.65, -50097.77, -83053.96, -34620.10, 0.00, 0.00, 0.00
240, -52178.87, -58946.93, -187500.02, -70924.95, -5014.88, -50515.97, -83872.99, -34603.83, 0.00, 0.00, 0.00
241, -50944.30, -58319.57, -187500.02, -83177.01, -4827.06, -50076.71, -85620.97, -33507.48, 0.00, 0.00, 0.00
242, -51133.66, -57920.34, -187500.02, -86919.23, -4696.91, -49716.45, -84896.55, -33522.14, 0.00, 0.00, 0.00
243, -52288.02, -58424.24, -187500.02, -76257.69, -4859.72, -50068.82, -83200.66, -34526.22, 0.00, 0.00, 0.00
244, -52422.68, -59016.52, -187500.02, -69964.51, -5064.03, -50578.62, -83549.14, -34818.56, 0.00, 0.66, 0.72
245, -51127.85, -58506.89, -187500.02, -81091.05, -4887.41, -50230.54, -85479.10, -33728.13, 0.00, 0.00, 0.00
246, -51054.89, -57976.63, -187500.02, -87570.91, -4734.35, -49774.18, -85171.74, -33519.48, 0.00, 0.00, 0.00
247, -52145.07, -58337.43, -187500.02, -78508.84, -4825.70, -50008.90, -83421.05, -34437.33, 0.00, 0.00, 0.00
248, -52569.04, -58994.95, -187500.02, -69640.10, -5068.50, -50566.84, -83257.05, -34959.18, 0.00, 0.00, 0.00
249, -51369.09, -58665.84, -187500.02, -78774.45, -4960.66, -50387.98, -85221.81, -33982.16, 0.00, 0.00, 0.00
250, -50999.95, -58024.90, -187500.02, -87726.37, -4770.35, -49864.75, -85374.30, -33517.69, 0.00, 0.00, 0.00
251, -51982.54, -58238.94, -187500.02, -80768.61, -4804.26, -49979.28, -83653.44, -34321.24, 0.00, 0.00, 0.00
252, -52687.89, -58946.87, -187500.02, -69978.98, -5061.08, -50558.35, -83009.99, -35063.89, 0.00, 0.00, 0.00
253, -51591.67, -58805.29, -187500.02, -76424.34, -5011.24, -50521.91, -84845.54, -34224.68, 0.00, 0.00, 0.00
254, -50927.38, -58088.70, -187500.02, -87357.92, -4810.92, -49949.66, -85452.39, -33525.54, -0.01, 0.70, 0.69
255, -51785.68, -58151.19, -187500.02, -82863.52, -4785.37, -49947.70, -83857.95, -34189.65, 0.00, 0.00, 0.00
0, -52709.64, -58848.95, -187500.02, -70904.36, -5032.03, -50511.30, -82811.55, -35092.28, 0.00, 0.00, 0.00
1, -51864.36, -58924.16, -187500.02, -74159.27, -5066.02, -50641.83, -84406.69, -34498.69, 0.00, 0.00, 0.00
2, -50945.70, -58187.67, -187500.02, -86447.29, -4866.29, -50026.71, -85479.80, -33602.09, 0.00, 0.00, 0.00
3, -51588.07, -58082.50, -187500.02, -84695.00, -4786.27, -49830.33, -84122.33, -34066.38, 0.00, 0.00, 0.00
4, -52658.83, -58753.82, -187500.02, -72361.94, -5010.19, -50323.41, -82779.77, -35083.70, 0.00, 0.00, 0.00
5, -52069.15, -59019.98, -187500.02, -72181.13, -5102.93, -50601.96, -84033.68, -34757.81, 0.00, 0.00, 0.00
6, -50951.22, -58297.19, -187500.02, -85030.37, -4906.79, -50055.21, -85501.30, -33707.48, 0.00, 0.00, 0.00
7, -51378.75, -58024.84, -187500.02, -86196.05, -4777.60, -49783.97, -84435.57, -33958.27, 0.00, 0.00, 0.00
8, -52537.41, -58612.80, -187500.02, -74249.50, -4961.55, -50224.57, -82850.29, -34996.75, -0.01, 0.72, 0.67
9, -52351.61, -59081.00, -187500.02, -70636.36, -5127.69, -50656.47, -83664.05, -35001.76, 0.00, 0.00, 0.00
10, -51114.44, -58456.54, -187500.02, -83174.59, -4956.14, -50197.48, -85452.57, -33895.12, 0.00, 0.00, 0.00
11, -51307.02, -58051.88, -187500.02, -87299.92, -4820.09, -49828.05, -84772.36, -33928.36, 0.00, 0.00, 0.00
12, -52442.29, -58528.87, -187500.02, -76422.31, -4940.23, -50175.80, -83061.34, -34927.41, 0.00, 0.00, 0.00
13, -52562.02, -59122.82, -187500.02, -69657.27, -5166.54, -50702.85, -83373.77, -35205.65, 0.00, 0.00, 0.00
14, -51265.54, -58619.62, -187500.02, -80969.70, -5025.99, -50369.09, -85337.98, -34090.57, 0.00, 0.00, 0.00
15, -51147.25, -58044.50, -187500.02, -87934.82, -4840.58, -49879.84, -85070.18, -33842.02, 0.00, 0.00, 0.00
16, -52240.96, -58385.30, -187500.02, -78749.55, -4893.47, -50108.45, -83299.85, -34770.04, 0.00, 0.00, 0.00
17, -52721.53, -59081.65, -187500.02, -69347.49, -5152.79, -50694.67, -83104.70, -35337.88, 0.00, 0.00, 0.00
18, -51474.48, -58754.35, -187500.02, -78571.37, -5072.73, -50502.29, -85101.72, -34318.33, -0.02, 0.73, 0.66
19, -51063.48, -58076.89, -187500.02, -88057.31, -4885.02, -49935.43, -85295.35, -33809.56, 0.00, 0.00, 0.00
20, -52072.03, -58284.32, -187500.02, -81062.11, -4881.89, -50052.35, -83571.00, -34639.55, 0.00, 0.00, 0.00
21, -52812.57, -59013.10, -187500.02, -69723.60, -5129.99, -50651.75, -82903.78, -35417.32, 0.00, 0.00, 0.00
22, -51720.79, -58893.83, -187500.02, -76135.09, -5126.42, -50623.88, -84779.67, -34560.98, 0.00, 0.00, 0.00
23, -51009.90, -58146.63, -187500.02, -87649.75, -4931.60, -50012.94, -85460.10, -33800.35, 0.00, 0.00, 0.00
24, -51854.30, -58186.89, -187500.02, -83238.09, -4857.88, -49988.09, -83871.66, -34449.47, 0.00, 0.00, 0.00
25, -52822.76, -58915.39, -187500.02, -70745.26, -5088.24, -50571.65, -82794.73, -35390.90, 0.00, 0.00, 0.00
26, -51984.77, -59013.27, -187500.02, -73816.50, -5156.68, -50720.78, -84413.73, -34802.22, 0.00, 0.00, 0.00
27, -50993.76, -58232.89, -187500.02, -86682.21, -4947.25, -50091.84, -85536.48, -33828.00, 0.00, 0.00, 0.00
28, -51640.64, -58095.22, -187500.02, -85159.12, -4827.46, -49941.98, -84175.66, -34282.59, -0.04, 0.74, 0.64
29, -52768.11, -58778.63, -187500.02, -72336.44, -5031.98, -50505.42, -82788.16, -35329.66, 0.00, 0.00, 0.00
30, -52245.46, -59096.89, -187500.02, -71806.54, -5164.73, -50794.11, -84042.35, -35037.63, 0.00, 0.00, 0.00
31, -51073.42, -58369.68, -187500.02, -85170.72, -4994.88, -50197.59, -85577.36, -33944.50, 0.00, 0.00, 0.00
32, -51490.73, -58079.15, -187500.02, -86687.02, -4850.08, -49924.09, -84531.16, -34182.39, 0.00, 0.00, 0.00
33, -52646.54, -58666.60, -187500.02, -74340.34, -4986.23, -50384.79, -82917.05, -35225.54, 0.00, 0.00, 0.00
34, -52483.88, -59155.68, -187500.02, -70267.96, -5178.21, -50821.43, -83701.40, -35231.78, 0.00, 0.00, 0.00
35, -51207.78, -58530.03, -187500.02, -83212.28, -5052.97, -50348.35, -85535.34, -34076.11, 0.00, 0.00, 0.00
36, -51358.79, -58092.00, -187500.02, -87787.73, -4897.27, -49964.02, -84868.63, -34067.72, 0.00, 0.00, 0.00
37, -52530.00, -58565.70, -187500.02, -76634.54, -4968.32, -50334.09, -83119.25, -35105.07, 0.00, 0.00, 0.00
38, -52707.45, -59191.60, -187500.02, -69328.54, -5195.75, -50878.80, -83392.27, -35418.11, -0.06, 0.74, 0.63
39, -51370.12, -58701.40, -187500.02, -80904.75, -5116.74, -50523.03, -85386.59, -34243.52, 0.00, 0.00, 0.00
40, -51228.77, -58115.23, -187500.02, -88390.57, -4938.37, -50027.94, -85149.23, -33961.95, 0.00, 0.00, 0.00
41, -52341.26, -58443.71, -187500.02, -79073.95, -4930.71, -50263.02, -83360.54, -34897.82, 0.00, 0.00, 0.00
42, -52863.24, -59162.59, -187500.02, -69099.23, -5171.01, -50840.88, -83109.30, -35461.18, 0.00, 0.00, 0.00
43, -51610.31, -58870.65, -187500.02, -78405.65, -5166.02, -50647.15, -85120.13, -34393.88, 0.00, 0.00, 0.00
44, -51176.08, -58195.80, -187500.02, -88426.45, -4998.72, -50100.14, -85382.92, -33862.71, 0.00, 0.00, 0.00
45, -52169.66, -58371.91, -187500.02, -81432.95, -4917.27, -50172.64, -83660.70, -34682.57, 0.00, 0.00, 0.00
46, -52947.19, -59127.27, -187500.02, -69522.62, -5158.54, -50648.00, -82929.53, -35490.10, 0.00, 0.00, 0.00
47, -51861.52, -59054.52, -187500.02, -75867.38, -5211.47, -50627.13, -84812.48, -34649.92, 0.00, 0.00, 0.00
48, -51103.26, -58287.47, -187500.02, -87928.14, -5029.23, -50057.60, -85549.22, -33862.54, 0.00, 0.00, 0.00
49, -51930.23, -58289.32, -187500.02, -83642.55, -4921.76, -50074.48, -83963.99, -34510.49, -0.08, 0.76, 0.63
50, -52949.40, -59022.62, -187500.02, -70661.91, -5123.82, -50696.82, -82833.75, -35489.45, 0.00, 0.00, 0.00
51, -52101.89, -59142.65, -187500.02, -73520.16, -5221.48, -50866.87, -84444.10, -34883.83, 0.00, 0.00, 0.00
52, -51093.96, -58360.49, -187500.02, -86855.34, -5073.62, -50244.69, -85618.17, -33892.42, 0.00, 0.00, 0.00
53, -51756.78, -58221.22, -187500.02, -85549.66, -4940.16, -50109.21, -84277.70, -34365.96, 0.00, 0.00, 0.00
54, -52897.93, -58896.00, -187500.02, -72352.30, -5087.79, -50653.48, -82848.80, -35422.62, 0.00, 0.00, 0.00
55, -52397.16, -59245.44, -187500.02, -71473.91, -5255.25, -50968.46, -84082.32, -35139.42, 0.00, 0.00, 0.00
56, -51172.77, -58503.27, -187500.02, -85240.97, -5114.32, -50370.82, -85664.89, -33993.92, 0.00, 0.00, 0.00
57, -51579.82, -58191.22, -187500.02, -87077.01, -4956.83, -50090.53, -84636.73, -34226.89, 0.00, 0.00, 0.00
58, -52798.55, -58786.25, -187500.02, -74473.82, -5057.66, -50556.22, -82987.35, -35322.26, 0.00, 0.00, 0.00
59, -52652.39, -59313.23, -187500.02, -69967.02, -5268.13, -51013.18, -83738.13, -35363.01, -0.10, 0.77, 0.63
60, -51301.57, -58663.45, -187500.02, -83185.95, -5164.35, -50515.72, -85605.66, -34154.20, 0.00, 0.00, 0.00
61, -51442.76, -58192.86, -187500.02, -88132.45, -4999.68, -50104.05, -84954.20, -34141.04, 0.00, 0.00, 0.00
62, -52642.80, -58666.27, -187500.02, -76852.45, -5042.55, -50473.10, -83190.35, -35200.11, 0.00, 0.00, 0.00
63, -52867.77, -59334.34, -187500.02, -69089.35, -5284.20, -51030.62, -83427.75, -35557.91, 0.00, 0.00, 0.00
64, -51509.30, -58858.76, -187500.02, -80799.23, -5229.48, -50659.98, -85456.95, -34381.00, 0.00, 0.00, 0.00
65, -51353.31, -58254.99, -187500.02, -88687.34, -5054.27, -50150.90, -85265.22, -34096.27, 0.00, 0.00, 0.00
66, -52486.30, -58574.51, -187500.02, -79376.85, -5009.43, -50387.94, -83470.98, -35057.05, 0.00, 0.00, 0.00
67, -53040.60, -59308.70, -187500.02, -68967.67, -5252.86, -51002.32, -83177.90, -35688.54, 0.00, 0.00, 0.00
68, -51752.04, -59033.10, -187500.02, -78243.30, -5278.25, -50829.56, -85218.37, -34640.31, 0.00, 0.00, 0.00
69, -51244.59, -58299.85, -187500.02, -88690.35, -5075.34, -50214.45, -85500.70, -34058.96, -0.11, 0.76, 0.61
70, -52248.63, -58454.75, -187500.02, -81804.74, -4982.99, -50303.98, -83762.87, -34883.14, 0.00, 0.00, 0.00
71, -53101.86, -59228.41, -187500.02, -69529.37, -5226.93, -50935.24, -82999.22, -35759.17, 0.00, 0.00, 0.00
72, -52006.34, -59177.74, -187500.02, -75656.72, -5300.27, -50898.68, -84894.52, -34907.72, 0.00, 0.00, 0.00
73, -51213.97, -58407.30, -187500.02, -88072.73, -5128.72, -50243.97, -85681.41, -34059.45, 0.00, 0.00, 0.00
74, -52036.65, -58403.54, -187500.02, -83993.52, -4996.62, -50228.35, -84121.15, -34710.05, 0.00, 0.00, 0.00
75, -53071.46, -59147.81, -187500.02, -70756.95, -5189.94, -50840.47, -82970.16, -35707.22, 0.00, 0.00, 0.00
76, -52273.89, -59325.02, -187500.02, -73272.39, -5320.81, -51010.86, -84575.63, -35140.81, 0.00, 0.00, 0.00
77, -51219.73, -58535.84, -187500.02, -86894.41, -5172.10, -50368.36, -85808.19, -34114.82, 0.00, 0.00, 0.00
78, -51839.37, -58359.98, -187500.02, -85853.30, -5012.96, -50210.04, -84478.55, -34559.62, 0.00, 0.00, 0.00
79, -53000.68, -59020.23, -187500.02, -72522.34, -5131.09, -50743.02, -83014.78, -35640.66, -0.13, 0.76, 0.60
80, -52525.08, -59387.71, -187500.02, -71257.27, -5322.55, -51083.03, -84201.59, -35386.54, 0.00, 0.00, 0.00
81, -51311.33, -58674.38, -187500.02, -85173.33, -5225.39, -50509.80, -85828.70, -34243.74, 0.00, 0.00, 0.00
82, -51669.12, -58330.36, -187500.02, -87325.00, -5049.91, -50202.71, -84827.35, -34449.34, 0.00, 0.00, 0.00
83, -52843.75, -58885.67, -187500.02, -74699.08, -5119.20, -50649.25, -83150.21, -35523.71, 0.00, 0.00, 0.00
84, -52755.05, -59434.07, -187500.02, -69787.98, -5337.91, -51111.96, -83848.37, -35594.46, 0.00, 0.00, 0.00
85, -51407.71, -58816.47, -187500.02, -83039.23, -5263.19, -50619.75, -85748.62, -34389.54, 0.00, 0.00, 0.00
86, -51471.80, -58313.49, -187500.02, -88337.58, -5073.09, -50179.04, -85143.96, -34318.71, 0.00, 0.00, 0.00
87, -52663.99, -58748.14, -187500.02, -77125.25, -5071.07, -50510.43, -83349.67, -35353.39, 0.00, 0.00, 0.00
88, -52942.63, -59429.17, -187500.02, -68966.02, -5317.17, -51083.05, -83525.70, -35752.06, 0.00, 0.00, 0.00
89, -51581.05, -58979.23, -187500.02, -80562.26, -5297.27, -50734.52, -85580.42, -34585.03, -0.15, 0.76, 0.59
90, -51373.38, -58351.93, -187500.02, -88782.27, -5119.31, -50187.82, -85426.02, -34257.38, 0.00, 0.00, 0.00
91, -52479.19, -58652.14, -187500.02, -79610.18, -5064.82, -50388.18, -83624.27, -35205.98, 0.00, 0.00, 0.00
92, -53077.43, -59402.82, -187500.02, -68896.37, -5303.69, -50994.25, -83287.94, -35879.85, 0.00, 0.00, 0.00
93, -51821.07, -59149.96, -187500.02, -77942.14, -5349.49, -50827.33, -85327.70, -34853.68, 0.00, 0.00, 0.00
94, -51274.70, -58413.84, -187500.02, -88679.41, -5171.12, -50205.13, -85663.98, -34228.61, 0.00, 0.00, 0.00
95, -52260.30, -58546.30, -187500.02, -82012.62, -5061.28, -50276.98, -83931.71, -35015.71, 0.00, 0.00, 0.00
96, -53154.37, -59319.00, -187500.02, -69541.05, -5296.25, -50908.46, -83119.34, -35888.79, 0.00, 0.00, 0.00
97, -52098.23, -59295.22, -187500.02, -75347.91, -5398.04, -50941.46, -84994.61, -35052.34, 0.00, 0.00, 0.00
98, -51284.49, -58513.31, -187500.02, -87991.69, -5240.86, -50315.00, -85834.92, -34191.30, 0.00, 0.00, 0.00
99, -52086.31, -58486.06, -187500.02, -84176.27, -5096.04, -50254.34, -84288.78, -34823.82, -0.21, 0.77, 0.62
100, -53119.97, -59219.47, -187500.02, -70839.63, -5273.22, -50853.77, -83103.83, -35848.69, 0.00, 0.00, 0.00
101, -52345.13, -59401.28, -187500.02, -73037.32, -5411.67, -51048.57, -84671.06, -35314.57, 0.00, 0.00, 0.00
102, -51269.54, -58607.14, -187500.02, -86788.98, -5271.68, -50415.07, -85931.21, -34266.43, 0.00, 0.00, 0.00
103, -51880.21, -58413.38, -187500.02, -86059.94, -5101.74, -50220.21, -84609.84, -34692.61, 0.00, 0.00, 0.00
104, -53060.56, -59076.46, -187500.02, -72715.66, -5221.86, -50746.26, -83103.80, -35784.74, 0.00, 0.00, 0.00
105, -52620.74, -59468.89, -187500.02, -71097.59, -5423.81, -51117.30, -84240.62, -35563.95, 0.00, 0.00, 0.00
106, -51361.74, -58749.48, -187500.02, -85039.58, -5326.73, -50557.75, -85901.59, -34398.71, 0.00, 0.00, 0.00
107, -51710.49, -58390.38, -187500.02, -87503.86, -5137.12, -50232.53, -84914.92, -34577.30, 0.00, 0.00, 0.00
108, -52930.98, -58947.56, -187500.02, -74946.96, -5198.66, -50664.72, -83195.56, -35669.34, 0.00, 0.00, 0.00
109, -52882.53, -59517.17, -187500.02, -69718.20, -5431.12, -51163.90, -83845.48, -35784.76, -0.21, 0.80, 0.58
110, -51523.70, -58915.04, -187500.02, -82876.42, -5367.91, -50708.08, -85770.55, -34570.55, 0.00, 0.00, 0.00
111, -51590.21, -58400.93, -187500.02, -88469.14, -5189.43, -50271.06, -85197.94, -34488.11, 0.00, 0.00, 0.00
112, -52787.78, -58839.98, -187500.02, -77390.38, -5187.39, -50601.17, -83391.14, -35528.01, 0.00, 0.00, 0.00
113, -53078.21, -59520.59, -187500.02, -69004.51, -5422.96, -51179.14, -83521.00, -35933.13, 0.00, 0.00, 0.00
114, -51718.38, -59075.26, -187500.02, -80426.52, -5401.54, -50864.45, -85575.30, -34753.03, 0.00, 0.00, 0.00
115, -51474.59, -58432.58, -187500.02, -88956.38, -5219.33, -50316.73, -85453.38, -34375.64, 0.00, 0.00, 0.00
116, -52569.09, -58703.84, -187500.02, -80004.96, -5149.26, -50506.78, -83634.46, -35274.20, 0.00, 0.00, 0.00
117, -53209.40, -59459.26, -187500.02, -69073.19, -5396.52, -51130.93, -83236.87, -35932.15, 0.00, 0.00, 0.00
118, -51978.55, -59233.06, -187500.02, -77847.81, -5451.75, -51006.54, -85273.22, -34855.78, 0.00, 0.00, 0.00
119, -51435.36, -58488.30, -187500.02, -88847.60, -5278.23, -50396.01, -85665.56, -34180.02, -0.22, 0.81, 0.59
120, -52404.07, -58608.86, -187500.02, -82435.17, -5152.79, -50454.75, -83942.33, -34965.08, 0.00, 0.00, 0.00
121, -53276.34, -59366.50, -187500.02, -69861.20, -5357.62, -51058.27, -83093.59, -35839.70, 0.00, 0.00, 0.00
122, -52273.15, -59370.75, -187500.02, -75380.61, -5490.35, -51117.34, -84940.11, -35063.43, 0.00, 0.00, 0.00
123, -51423.25, -58591.72, -187500.02, -88214.02, -5339.68, -50497.04, -85835.08, -34201.21, 0.00, 0.00, 0.00
124, -52195.73, -58538.64, -187500.02, -84698.16, -5172.69, -50408.03, -84297.12, -34795.43, 0.00, 0.00, 0.00
125, -53281.59, -59266.72, -187500.02, -71307.09, -5334.74, -50980.33, -83058.21, -35830.61, 0.00, 0.00, 0.00
126, -52508.47, -59456.96, -187500.02, -73190.27, -5481.07, -51199.11, -84588.25, -35298.28, 0.00, 0.00, 0.00
127, -51421.30, -58680.03, -187500.02, -87079.53, -5359.70, -50587.05, -85910.07, -34236.84, 0.00, 0.00, 0.00
128, -51986.82, -58472.18, -187500.02, -86659.59, -5184.58, -50373.81, -84624.69, -34617.57, 0.00, 0.00, 0.00
129, -53174.71, -59138.20, -187500.02, -73303.37, -5309.30, -50878.96, -83087.29, -35701.68, -0.22, 0.81, 0.57
130, -52786.01, -59558.25, -187500.02, -71370.48, -5517.01, -51269.58, -84198.28, -35523.89, 0.00, 0.00, 0.00
131, -51539.84, -58854.20, -187500.02, -85344.41, -5422.76, -50737.18, -85899.23, -34365.52, 0.00, 0.00, 0.00
132, -51868.59, -58489.15, -187500.02, -88081.16, -5220.12, -50380.63, -84958.62, -34521.78, 0.00, 0.00, 0.00
133, -53051.95, -59020.14, -187500.02, -75514.31, -5255.95, -50767.52, -83217.09, -35590.86, 0.00, 0.00, 0.00
134, -53001.55, -59577.03, -187500.02, -69862.30, -5494.60, -51274.54, -83796.48, -35729.42, 0.00, 0.00, 0.00
135, -51646.88, -58985.00, -187500.02, -82922.20, -5435.47, -50842.17, -85748.80, -34510.06, 0.00, 0.00, 0.00
136, -51682.66, -58468.56, -187500.02, -88836.85, -5255.59, -50372.18, -85225.79, -34381.90, 0.00, 0.00, 0.00
137, -52858.92, -58886.47, -187500.02, -77853.00, -5239.74, -50654.68, -83409.60, -35403.53, 0.00, 0.00, 0.00
138, -53189.13, -59562.34, -187500.02, -69083.07, -5476.67, -51228.63, -83478.09, -35842.38, 0.00, 0.00, 0.00
139, -51835.95, -59136.81, -187500.02, -80350.48, -5482.23, -50965.46, -85558.20, -34693.82, -0.23, 0.81, 0.57
140, -51523.12, -58474.96, -187500.02, -89220.98, -5281.40, -50403.20, -85518.33, -34278.12, 0.00, 0.00, 0.00
141, -52616.83, -58742.28, -187500.02, -80404.23, -5201.38, -50551.20, -83697.76, -35183.97, 0.00, 0.00, 0.00
142, -53272.34, -59495.96, -187500.02, -69150.91, -5443.63, -51162.36, -83238.03, -35886.75, 0.00, 0.00, 0.00
143, -52066.51, -59290.77, -187500.02, -77687.33, -5511.69, -51074.81, -85284.40, -34905.91, 0.00, 0.00, 0.00
144, -51488.47, -58557.07, -187500.02, -88963.60, -5341.71, -50467.60, -85751.44, -34257.73, 0.00, 0.00, 0.00
145, -52431.65, -58670.20, -187500.02, -82728.74, -5219.89, -50490.49, -84033.70, -35016.49, 0.00, 0.00, 0.00
146, -53327.06, -59424.91, -187500.02, -69835.43, -5432.86, -51098.93, -83123.56, -35910.51, 0.00, 0.00, 0.00
147, -52297.43, -59410.20, -187500.02, -75012.70, -5528.23, -51175.86, -84960.59, -35124.25, 0.00, 0.00, 0.00
148, -51421.95, -58636.69, -187500.02, -88111.94, -5380.91, -50548.42, -85922.09, -34235.43, 0.00, 0.00, 0.00
149, -52183.41, -58586.07, -187500.02, -84854.53, -5217.75, -50428.02, -84391.27, -34810.23, -0.24, 0.80, 0.59
150, -53253.05, -59286.41, -187500.02, -71219.88, -5367.01, -50963.70, -83078.68, -35826.40, 0.00, 0.00, 0.00
151, -52569.04, -59521.38, -187500.02, -72606.55, -5547.01, -51227.04, -84577.23, -35375.01, 0.00, 0.00, 0.00
152, -51455.75, -58767.72, -187500.02, -86668.51, -5434.02, -50647.73, -85997.13, -34306.86, 0.00, 0.00, 0.00
153, -51970.13, -58532.98, -187500.02, -86616.29, -5241.82, -50390.91, -84748.85, -34638.79, 0.00, 0.00, 0.00
154, -53149.32, -59159.43, -187500.02, -73112.20, -5342.27, -50852.27, -83146.19, -35708.59, 0.00, 0.00, 0.00
155, -52796.99, -59582.39, -187500.02, -70634.62, -5563.08, -51260.41, -84189.61, -35561.00, 0.00, 0.00, 0.00
156, -51516.05, -58894.92, -187500.02, -84728.84, -5484.81, -50763.61, -85984.23, -34387.18, 0.00, 0.00, 0.00
157, -51795.63, -58508.06, -187500.02, -87950.13, -5290.30, -50385.46, -85104.89, -34486.53, 0.00, 0.00, 0.00
158, -53010.67, -59042.51, -187500.02, -75371.69, -5328.66, -50750.62, -83320.75, -35554.89, 0.00, 0.00, 0.00
159, -53024.41, -59625.58, -187500.02, -69263.83, -5563.26, -51258.52, -83853.57, -35724.03, -0.23, 0.77, 0.62
160, -51655.39, -59049.04, -187500.02, -82398.97, -5518.73, -50861.88, -85899.16, -34511.02, 0.00, 0.00, 0.00
161, -51646.70, -58514.56, -187500.02, -88789.09, -5325.79, -50389.59, -85464.55, -34343.99, 0.00, 0.00, 0.00
162, -52839.59, -58935.63, -187500.02, -77832.26, -5320.16, -50661.95, -83610.97, -35367.97, 0.00, 0.00, 0.00
163, -53217.51, -59639.70, -187500.02, -68580.60, -5570.97, -51241.84, -83612.15, -35848.22, 0.00, 0.00, 0.00
164, -51878.78, -59232.77, -187500.02, -79765.04, -5574.95, -50997.45, -85758.09, -34708.93, 0.00, 0.00, 0.00
165, -51550.54, -58566.46, -187500.02, -89055.05, -5386.41, -50427.77, -85796.32, -34268.09, 0.00, 0.00, 0.00
166, -52639.86, -58832.89, -187500.02, -80311.52, -5311.82, -50565.28, -83936.70, -35164.84, 0.00, 0.00, 0.00
167, -53322.14, -59577.59, -187500.02, -68649.91, -5536.17, -51171.84, -83403.48, -35885.12, 0.00, 0.00, 0.00
168, -52121.63, -59376.49, -187500.02, -77014.48, -5600.36, -51107.91, -85487.09, -34913.29, 0.00, 0.00, 0.00
169, -51501.59, -58627.71, -187500.02, -88700.57, -5434.07, -50505.46, -86046.16, -34221.88, -0.21, 0.69, 0.64
170, -52467.37, -58740.70, -187500.02, -82618.28, -5335.12, -50522.41, -84303.38, -34974.13, 0.00, 0.00, 0.00
171, -53390.09, -59507.50, -187500.02, -69398.55, -5535.03, -51109.86, -83307.09, -35871.69, 0.00, 0.00, 0.00
172, -52381.89, -59508.84, -187500.02, -74358.35, -5623.97, -51211.51, -85160.86, -35111.39, 0.00, 0.00, 0.00
173, -51462.03, -58714.97, -187500.02, -87861.04, -5460.78, -50595.00, -86195.03, -34192.22, 0.00, 0.00, 0.00
174, -52228.70, -58640.74, -187500.02, -84751.60, -5311.65, -50455.64, -84589.70, -34764.09, 0.00, 0.00, 0.00
175, -53359.56, -59370.95, -187500.02, -70745.59, -5490.93, -51002.41, -83149.18, -35828.26, 0.00, 0.00, 0.00
176, -52659.39, -59604.75, -187500.02, -71916.09, -5642.07, -51294.88, -84640.38, -35375.39, 0.00, 0.00, 0.00
177, -51524.14, -58834.98, -187500.02, -86419.59, -5519.47, -50735.46, -86122.97, -34302.46, 0.00, 0.00, 0.00
178, -52064.01, -58608.75, -187500.02, -86573.49, -5349.76, -50472.83, -84815.93, -34672.56, 0.00, 0.00, 0.00
179, -53276.10, -59260.33, -187500.02, -72831.19, -5460.55, -50933.75, -83099.02, -35789.97, -0.21, 0.77, 0.65
180, -52914.02, -59693.06, -187500.02, -70142.66, -5664.07, -51372.51, -84124.63, -35676.04, 0.00, 0.00, 0.00
181, -51586.06, -58993.07, -187500.02, -84552.53, -5565.27, -50880.10, -86002.89, -34491.73, 0.00, 0.00, 0.00
182, -51863.85, -58584.48, -187500.02, -87992.63, -5376.56, -50484.52, -85118.62, -34599.43, 0.00, 0.00, 0.00
183, -53081.01, -59100.18, -187500.02, -75278.84, -5415.02, -50837.23, -83262.23, -35675.98, 0.00, 0.00, 0.00
184, -53116.39, -59701.98, -187500.02, -68924.59, -5648.42, -51367.88, -83781.82, -35870.48, 0.00, 0.00, 0.00
185, -51760.69, -59146.71, -187500.02, -82260.25, -5598.11, -51013.07, -85947.84, -34676.56, 0.00, 0.00, 0.00
186, -51759.53, -58608.89, -187500.02, -88946.26, -5419.14, -50517.78, -85547.86, -34518.40, 0.00, 0.00, 0.00
187, -52926.40, -58993.40, -187500.02, -77938.88, -5399.26, -50739.00, -83601.53, -35522.22, 0.00, 0.00, 0.00
188, -53311.88, -59686.78, -187500.02, -68458.72, -5632.62, -51327.56, -83527.21, -36013.96, 0.00, 0.00, 0.00
189, -51971.31, -59289.65, -187500.02, -79746.53, -5620.73, -51110.44, -85714.71, -34870.13, -0.17, 0.77, 0.65
190, -51669.09, -58633.00, -187500.02, -89271.95, -5453.67, -50547.82, -85753.02, -34455.19, 0.00, 0.00, 0.00
191, -52756.08, -58886.38, -187500.02, -80468.55, -5380.67, -50652.96, -83809.96, -35359.50, 0.00, 0.00, 0.00
192, -53443.15, -59640.24, -187500.02, -68586.19, -5609.93, -51257.58, -83216.44, -36090.58, 0.00, 0.00, 0.00
193, -52237.57, -59447.30, -187500.02, -76976.34, -5648.62, -51231.87, -85383.73, -35126.48, 0.00, 0.00, 0.00
194, -51608.01, -58677.48, -187500.02, -88919.17, -5464.64, -50621.65, -86006.27, -34426.63, 0.00, 0.00, 0.00
195, -52532.70, -58753.64, -187500.02, -82900.43, -5341.89, -50585.41, -84214.58, -35150.04, 0.00, 0.00, 0.00
196, -53462.13, -59504.97, -187500.02, -69544.79, -5543.99, -51157.20, -83145.00, -36051.39, 0.00, 0.00, 0.00
197, -52502.66, -59544.91, -187500.02, -74340.45, -5638.83, -51297.74, -85037.21, -35335.43, 0.00, 0.00, 0.00
198, -51619.99, -58774.27, -187500.02, -87949.57, -5493.88, -50690.60, -86156.96, -34438.02, 0.00, 0.00, 0.00
199, -52365.71, -58692.24, -187500.02, -85026.01, -5356.98, -50524.42, -84578.02, -34980.34, -0.14, 0.73, 0.64
200, -53460.34, -59390.13, -187500.02, -71125.46, -5523.38, -51035.58, -83119.54, -36003.45, 0.00, 0.00, 0.00
201, -52807.76, -59655.69, -187500.02, -72076.77, -5671.67, -51365.98, -84628.22, -35587.13, 0.00, 0.00, 0.00
202, -51693.57, -58901.54, -187500.02, -86498.97, -5543.01, -50824.09, -86210.27, -34517.69, 0.00, 0.00, 0.00
203, -52226.79, -58666.69, -187500.02, -86795.04, -5389.92, -50537.63, -84944.31, -34856.16, 0.00, 0.00, 0.00
204, -53426.37, -59305.03, -187500.02, -73137.88, -5515.40, -50969.39, -83201.48, -35934.63, 0.00, 0.00, 0.00
205, -53104.61, -59748.42, -187500.02, -70252.52, -5697.82, -51418.15, -84224.59, -35816.23, 0.00, 0.00, 0.00
206, -51810.71, -59060.95, -187500.02, -84516.73, -5594.13, -50962.20, -86153.27, -34645.36, 0.00, 0.00, 0.00
207, -52069.88, -58665.64, -187500.02, -88100.00, -5426.94, -50565.50, -85282.05, -34738.16, 0.00, 0.00, 0.00
208, -53269.35, -59181.47, -187500.02, -75562.66, -5490.86, -50882.00, -83366.35, -35787.62, 0.00, 0.00, 0.00
209, -53327.55, -59764.34, -187500.02, -69068.43, -5713.28, -51431.23, -83824.72, -36002.09, 0.00, 0.00, 0.00
210, -52001.60, -59223.05, -187500.02, -82091.72, -5641.16, -51126.42, -85990.73, -34847.87, -0.12, 0.71, 0.64
211, -51968.56, -58683.96, -187500.02, -88825.70, -5459.15, -50627.68, -85605.44, -34668.76, 0.00, 0.00, 0.00
212, -53104.99, -59070.54, -187500.02, -78169.70, -5474.14, -50813.47, -83636.56, -35632.99, 0.00, 0.00, 0.00
213, -53507.01, -59751.82, -187500.02, -68682.69, -5706.31, -51394.39, -83514.12, -36131.82, 0.00, 0.00, 0.00
214, -52207.75, -59362.30, -187500.02, -79513.00, -5656.31, -51241.21, -85733.60, -35058.62, 0.00, 0.00, 0.00
215, -51868.76, -58706.79, -187500.02, -89043.24, -5489.16, -50689.71, -85853.02, -34607.88, 0.00, 0.00, 0.00
216, -52888.52, -58942.13, -187500.02, -80674.73, -5454.09, -50744.43, -83915.82, -35442.47, 0.00, 0.00, 0.00
217, -53569.13, -59671.09, -187500.02, -68960.20, -5677.88, -51309.72, -83245.09, -36164.50, 0.00, 0.00, 0.00
218, -52412.85, -59481.84, -187500.02, -76839.48, -5681.72, -51322.66, -85340.34, -35255.65, 0.00, 0.00, 0.00
219, -51791.14, -58748.81, -187500.02, -88629.38, -5507.67, -50745.19, -85996.48, -34582.71, 0.00, 0.00, 0.00
220, -52682.90, -58828.76, -187500.02, -83051.39, -5427.36, -50664.81, -84211.60, -35275.23, -0.09, 0.72, 0.64
221, -53548.36, -59537.56, -187500.02, -70049.38, -5624.03, -51167.52, -83076.45, -36129.92, 0.00, 0.00, 0.00
222, -52645.51, -59581.50, -187500.02, -74257.68, -5693.19, -51356.57, -84885.75, -35476.89, 0.00, 0.00, 0.00
223, -51747.10, -58828.85, -187500.02, -87523.30, -5510.84, -50814.16, -86074.30, -34581.79, 0.00, 0.00, 0.00
224, -52429.86, -58745.12, -187500.02, -85093.52, -5404.83, -50630.88, -84559.91, -35063.11, 0.00, 0.00, 0.00
225, -53479.25, -59413.24, -187500.02, -71851.60, -5593.46, -51069.53, -83088.12, -36040.46, 0.00, 0.00, 0.00
226, -52889.97, -59652.45, -187500.02, -72181.42, -5693.75, -51375.64, -84460.06, -35683.35, 0.00, 0.00, 0.00
227, -51803.92, -58935.13, -187500.02, -85906.42, -5532.95, -50890.02, -86079.16, -34662.32, 0.00, 0.00, 0.00
228, -52279.36, -58694.36, -187500.02, -86662.54, -5409.68, -50570.39, -84916.24, -34927.77, 0.00, 0.00, 0.00
229, -53409.47, -59289.43, -187500.02, -73801.01, -5568.87, -50933.90, -83187.53, -35939.37, 0.00, 0.00, 0.00
230, -53158.17, -59719.59, -187500.02, -70479.54, -5731.86, -51378.61, -84079.02, -35890.84, -0.06, 0.71, 0.66
231, -51946.93, -59079.86, -187500.02, -83745.14, -5591.27, -51014.05, -86009.60, -34796.66, 0.00, 0.00, 0.00
232, -52135.51, -58693.55, -187500.02, -87581.35, -5449.76, -50615.21, -85266.67, -34820.39, 0.00, 0.00, 0.00
233, -53236.02, -59168.95, -187500.02, -76279.08, -5544.57, -50865.86, -83442.66, -35766.57, 0.00, 0.00, 0.00
234, -53333.61, -59710.14, -187500.02, -69720.84, -5720.30, -51341.60, -83741.27, -35994.24, 0.00, 0.00, 0.00
235, -52119.64, -59229.13, -187500.02, -81340.99, -5598.35, -51111.00, -85803.83, -34938.64, 0.00, 0.00, 0.00
236, -52034.17, -58710.12, -187500.02, -88128.73, -5444.50, -50637.90, -85562.48, -34703.29, 0.00, 0.00, 0.00
237, -53082.17, -59065.38, -187500.02, -78596.30, -5523.34, -50763.80, -83702.95, -35570.36, 0.00, 0.00, 0.00
238, -53479.48, -59697.13, -187500.02, -69390.59, -5732.57, -51270.14, -83466.59, -36049.09, 0.00, 0.00, 0.00
239, -52316.60, -59374.08, -187500.02, -78853.60, -5641.65, -51190.61, -85539.48, -35094.20, 0.00, 0.00, 0.00
240, -51950.30, -58759.85, -187500.02, -88072.62, -5461.74, -50691.63, -85789.84, -34634.07, -0.03, 0.71, 0.67
241, -52886.53, -58962.87, -187500.02, -80908.48, -5496.47, -50708.46, -84008.88, -35387.06, 0.00, 0.00, 0.00
242, -53563.38, -59648.18, -187500.02, -70007.61, -5737.54, -51219.67, -83294.27, -36088.37, 0.00, 0.00, 0.00
243, -52583.57, -59517.20, -187500.02, -76290.62, -5674.19, -51274.90, -85164.14, -35338.87, 0.00, 0.00, 0.00
244, -51987.05, -58856.03, -187500.02, -87013.86, -5508.39, -50788.19, -85892.97, -34709.24, 0.00, 0.00, 0.00
245, -52717.68, -58910.84, -187500.02, -82739.85, -5499.40, -50691.77, -84365.85, -35259.85, 0.00, 0.00, 0.00
246, -53514.97, -59540.64, -187500.02, -71443.91, -5720.73, -51119.73, -83295.23, -36018.70, 0.00, 0.00, 0.00
247, -52791.87, -59605.13, -187500.02, -74380.10, -5728.17, -51316.96, -84806.16, -35514.64, 0.00, 0.00, 0.00
248, -51967.87, -58933.25, -187500.02, -85998.49, -5513.33, -50855.49, -85954.41, -34715.10, 0.00, 0.00, 0.00
249, -52531.22, -58838.35, -187500.02, -84362.81, -5475.42, -50648.98, -84659.76, -35108.35, 0.00, 0.00, 0.00
250, -53478.25, -59449.76, -187500.02, -72693.70, -5707.92, -51031.87, -83279.84, -35990.46, 0.01, 0.70, 0.69
251, -53003.05, -59695.07, -187500.02, -72488.49, -5752.78, -51352.37, -84451.52, -35724.25, 0.00, 0.00, 0.00
252, -51981.75, -59035.18, -187500.02, -84789.02, -5509.79, -50938.80, -85988.27, -34774.22, 0.00, 0.00, 0.00
253, -52363.09, -58798.36, -187500.02, -85861.07, -5446.32, -50636.47, -84970.82, -34979.99, 0.00, 0.00, 0.00
254, -53392.64, -59358.57, -187500.02, -74408.48, -5670.68, -50937.99, -83346.43, -35895.09, 0.00, 0.00, 0.00
255, -53231.93, -59765.63, -187500.02, -70969.34, -5779.29, -51357.18, -84073.63, -35902.24, 0.00, 0.00, 0.00
0, -52112.22, -59164.13, -187500.02, -83052.42, -5534.43, -51054.94, -85915.32, -34909.45, 0.00, 0.00, 0.00
1, -52257.57, -58791.21, -187500.02, -86917.41, -5438.34, -50673.57, -85278.36, -34899.07, 0.00, 0.00, 0.00
2, -53286.71, -59250.76, -187500.02, -76454.41, -5643.64, -50874.96, -83515.30, -35783.40, 0.00, 0.00, 0.00
3, -53395.03, -59776.00, -187500.02, -70067.87, -5793.21, -51324.48, -83738.95, -36022.16, 0.00, 0.00, 0.00
4, -52246.13, -59293.79, -187500.02, -81038.51, -5554.83, -51140.43, -85748.77, -35048.63, 0.05, 0.70, 0.70
5, -52133.92, -58775.63, -187500.02, -87568.27, -5399.98, -50689.30, -85538.98, -34816.73, 0.00, 0.00, 0.00
6, -53127.99, -59126.13, -187500.02, -78649.02, -5591.18, -50796.13, -83729.05, -35644.59, 0.00, 0.00, 0.00
7, -53539.55, -59739.75, -187500.02, -69754.34, -5816.57, -51276.51, -83453.68, -36130.75, 0.00, 0.00, 0.00
8, -52459.92, -59434.05, -187500.02, -78776.06, -5593.79, -51246.89, -85495.11, -35249.57, 0.00, 0.00, 0.00
9, -52056.56, -58812.49, -187500.02, -87687.05, -5377.36, -50745.45, -85763.44, -34789.75, 0.00, 0.00, 0.00
10, -52928.46, -59022.75, -187500.02, -80837.05, -5536.77, -50738.82, -84012.13, -35492.31, 0.00, 0.00, 0.00
11, -53580.48, -59678.42, -187500.02, -70149.70, -5817.58, -51214.19, -83267.63, -36156.98, 0.00, 0.00, 0.00
12, -52632.05, -59548.87, -187500.02, -76469.92, -5625.58, -51317.59, -85173.42, -35441.93, 0.00, 0.00, 0.00
13, -52018.27, -58877.13, -187500.02, -87224.39, -5369.63, -50820.40, -85926.27, -34798.80, 0.00, 0.00, 0.00
14, -52763.73, -58937.50, -187500.02, -82829.20, -5482.70, -50698.92, -84333.17, -35362.98, 0.06, 0.67, 0.70
15, -53601.02, -59590.46, -187500.02, -71174.41, -5805.62, -51137.82, -83210.34, -36171.80, 0.00, 0.00, 0.00
16, -52852.13, -59622.32, -187500.02, -74394.18, -5656.65, -51402.80, -84888.99, -35665.65, 0.00, 0.00, 0.00
17, -52049.86, -58908.56, -187500.02, -86481.49, -5339.54, -51045.64, -86099.74, -34924.93, 0.00, 0.00, 0.00
18, -52638.27, -58811.37, -187500.02, -84794.89, -5433.82, -50854.40, -84636.02, -35452.04, 0.00, 0.00, 0.00
19, -53578.65, -59431.14, -187500.02, -72807.16, -5787.27, -51154.80, -83151.52, -36325.11, 0.00, 0.00, 0.00
20, -53127.90, -59677.43, -187500.02, -72619.12, -5765.14, -51485.83, -84347.03, -35978.04, 0.00, 0.00, 0.00
21, -52126.10, -59013.63, -187500.02, -85139.18, -5406.46, -51104.78, -85919.43, -35024.55, 0.00, 0.00, 0.00
22, -52486.68, -58792.39, -187500.02, -86279.50, -5395.42, -50786.80, -84877.73, -35260.99, 0.00, 0.00, 0.00
23, -53505.36, -59351.75, -187500.02, -74790.52, -5719.34, -51072.91, -83194.80, -36187.81, 0.00, 0.00, 0.00
24, -53342.57, -59736.60, -187500.02, -71315.45, -5760.31, -51506.06, -83931.31, -36198.76, 0.14, 0.70, 0.72
25, -52231.89, -59152.01, -187500.02, -83434.43, -5407.13, -51222.86, -85781.27, -35229.90, 0.00, 0.00, 0.00
26, -52354.20, -58784.01, -187500.02, -87384.25, -5353.89, -50816.27, -85099.93, -35215.89, 0.00, 0.00, 0.00
27, -53371.32, -59247.86, -187500.02, -76995.52, -5688.38, -51002.14, -83300.48, -36109.55, 0.00, 0.00, 0.00
28, -53511.39, -59784.68, -187500.02, -70536.23, -5841.81, -51477.81, -83515.68, -36386.38, 0.00, 0.00, 0.00
29, -52390.27, -59348.33, -187500.02, -81373.42, -5494.71, -51330.15, -85543.05, -35458.09, 0.00, 0.00, 0.00
30, -52259.81, -58865.64, -187500.02, -88005.12, -5370.23, -50876.21, -85369.83, -35234.04, 0.00, 0.00, 0.00
31, -53228.38, -59219.85, -187500.02, -79293.70, -5665.99, -50970.52, -83579.45, -36048.27, 0.00, 0.00, 0.00
32, -53626.91, -59813.24, -187500.02, -70387.36, -5904.91, -51448.75, -83283.09, -36521.34, 0.00, 0.00, 0.00
33, -52541.62, -59485.99, -187500.02, -79121.30, -5593.10, -51425.24, -85293.29, -35654.81, 0.00, 0.00, 0.00
34, -52148.29, -58886.92, -187500.02, -88038.29, -5389.79, -50934.68, -85591.13, -35197.74, 0.11, 0.72, 0.70
35, -53004.05, -59097.00, -187500.02, -81476.58, -5621.11, -50902.99, -83878.65, -35881.30, 0.00, 0.00, 0.00
36, -53631.18, -59731.04, -187500.02, -70866.59, -5922.92, -51340.88, -83106.95, -36516.91, 0.00, 0.00, 0.00
37, -52711.25, -59603.92, -187500.02, -76833.25, -5684.63, -51451.52, -84942.77, -35812.10, 0.00, 0.00, 0.00
38, -52082.04, -58933.50, -187500.02, -87550.84, -5411.94, -50963.25, -85704.16, -35167.94, 0.00, 0.00, 0.00
39, -52785.57, -58976.37, -187500.02, -83455.24, -5568.53, -50827.57, -84149.27, -35703.94, 0.00, 0.00, 0.00
40, -53592.53, -59593.55, -187500.02, -71935.42, -5901.71, -51229.77, -83003.38, -36475.25, 0.00, 0.00, 0.00
41, -52909.57, -59669.37, -187500.02, -74705.20, -5755.93, -51473.59, -84546.05, -36000.48, 0.00, 0.00, 0.00
42, -52081.66, -59000.60, -187500.02, -86529.21, -5423.81, -51034.73, -85761.92, -35192.71, 0.00, 0.00, 0.00
43, -52620.00, -58898.75, -187500.02, -85115.13, -5506.55, -50805.25, -84477.34, -35560.64, 0.00, 0.00, 0.00
44, -53564.07, -59506.55, -187500.02, -73437.08, -5866.82, -51161.78, -83067.17, -36419.77, 0.09, 0.73, 0.68
45, -53152.20, -59759.36, -187500.02, -72889.35, -5797.80, -51513.59, -84219.00, -36195.88, 0.00, 0.00, 0.00
46, -52179.52, -59127.63, -187500.02, -85074.05, -5420.12, -51135.92, -85795.67, -35282.88, 0.00, 0.00, 0.00
47, -52505.97, -58896.04, -187500.02, -86438.28, -5446.34, -50819.02, -84834.23, -35453.91, 0.00, 0.00, 0.00
48, -53488.50, -59428.08, -187500.02, -75277.68, -5813.82, -51100.78, -83231.55, -36334.86, 0.00, 0.00, 0.00
49, -53351.11, -59832.64, -187500.02, -71507.56, -5867.65, -51509.73, -83906.63, -36349.16, 0.00, 0.00, 0.00
50, -52260.21, -59279.64, -187500.02, -83181.61, -5482.15, -51219.56, -85748.20, -35385.56, 0.00, 0.00, 0.00
51, -52365.42, -58902.86, -187500.02, -87276.32, -5429.80, -50816.55, -85177.17, -35359.59, 0.00, 0.00, 0.00
52, -53365.04, -59347.39, -187500.02, -77260.45, -5782.44, -51010.79, -83470.33, -36224.49, 0.00, 0.00, 0.00
53, -53511.66, -59867.78, -187500.02, -70674.02, -5929.78, -51470.48, -83651.52, -36485.67, 0.00, 0.00, 0.00
54, -52418.77, -59441.36, -187500.02, -81007.34, -5564.96, -51334.60, -85619.12, -35559.75, 0.06, 0.71, 0.68
55, -52237.50, -58929.90, -187500.02, -87664.59, -5419.05, -50884.28, -85482.14, -35279.86, 0.00, 0.00, 0.00
56, -53147.15, -59222.93, -187500.02, -79339.15, -5707.83, -50946.64, -83731.24, -36030.43, 0.00, 0.00, 0.00
57, -53586.00, -59820.44, -187500.02, -70438.08, -5953.72, -51406.44, -83386.02, -36528.74, 0.00, 0.00, 0.00
58, -52574.45, -59542.48, -187500.02, -78681.40, -5619.92, -51401.03, -85339.05, -35713.55, 0.00, 0.00, 0.00
59, -52170.18, -58935.82, -187500.02, -87542.75, -5400.72, -50929.34, -85663.17, -35243.34, 0.00, 0.00, 0.00
60, -53009.60, -59130.04, -187500.02, -81340.77, -5666.77, -50934.44, -84004.58, -35912.86, 0.00, 0.00, 0.00
61, -53653.44, -59755.33, -187500.02, -70885.56, -5983.38, -51371.73, -83227.03, -36559.56, 0.00, 0.00, 0.00
62, -52796.72, -59665.07, -187500.02, -76377.05, -5718.94, -51482.46, -84997.52, -35903.05, 0.00, 0.00, 0.00
63, -52156.32, -59017.86, -187500.02, -86962.50, -5409.03, -50997.76, -85797.81, -35241.37, 0.00, 0.00, 0.00
64, -52838.67, -59059.70, -187500.02, -83213.71, -5600.81, -50880.93, -84299.76, -35764.00, 0.06, 0.71, 0.68
65, -53649.93, -59677.95, -187500.02, -71938.82, -5952.47, -51297.43, -83154.45, -36541.03, 0.00, 0.00, 0.00
66, -53011.83, -59772.79, -187500.02, -74300.41, -5778.08, -51544.04, -84622.23, -36106.14, 0.00, 0.00, 0.00
67, -52193.45, -59134.04, -187500.02, -85822.72, -5433.37, -51121.14, -85847.15, -35322.71, 0.00, 0.00, 0.00
68, -52708.07, -59045.35, -187500.02, -84738.41, -5550.47, -50895.17, -84621.91, -35676.45, 0.00, 0.00, 0.00
69, -53615.51, -59611.45, -187500.02, -73590.41, -5930.12, -51226.00, -83211.72, -36503.21, 0.00, 0.00, 0.00
70, -53257.93, -59879.11, -187500.02, -72666.59, -5873.30, -51578.23, -84247.43, -36320.96, 0.00, 0.00, 0.00
71, -52305.96, -59296.94, -187500.02, -84186.66, -5486.28, -51253.40, -85800.21, -35457.06, 0.00, 0.00, 0.00
72, -52554.29, -59017.93, -187500.02, -85837.71, -5487.67, -50923.62, -84912.62, -35564.69, 0.00, 0.00, 0.00
73, -53489.80, -59491.33, -187500.02, -75393.46, -5864.49, -51176.84, -83321.69, -36392.46, 0.00, 0.00, 0.00
74, -53400.33, -59895.27, -187500.02, -71474.91, -5912.55, -51583.78, -83879.92, -36447.96, 0.06, 0.73, 0.67
75, -52387.95, -59383.31, -187500.02, -82429.37, -5504.25, -51350.00, -85658.99, -35547.72, 0.00, 0.00, 0.00
76, -52472.13, -58999.93, -187500.02, -86644.73, -5461.13, -50978.00, -85154.04, -35511.18, 0.00, 0.00, 0.00
77, -53377.84, -59389.86, -187500.02, -77294.72, -5807.94, -51123.87, -83480.70, -36292.53, 0.00, 0.00, 0.00
78, -53541.90, -59876.36, -187500.02, -70741.46, -5937.34, -51532.75, -83554.38, -36549.13, 0.00, 0.00, 0.00
79, -52524.00, -59494.13, -187500.02, -80376.83, -5556.15, -51423.11, -85445.28, -35693.70, 0.00, 0.00, 0.00
80, -52345.14, -58997.45, -187500.02, -87042.80, -5410.04, -50990.90, -85380.69, -35427.25, 0.00, 0.00, 0.00
81, -53244.74, -59295.53, -187500.02, -79215.41, -5739.64, -51066.92, -83690.90, -36175.34, 0.00, 0.00, 0.00
82, -53677.04, -59874.82, -187500.02, -70430.27, -5981.13, -51521.82, -83311.54, -36659.41, 0.00, 0.00, 0.00
83, -52698.97, -59632.84, -187500.02, -78162.39, -5618.09, -51527.72, -85209.48, -35871.15, 0.00, 0.00, 0.00
84, -52257.24, -59031.27, -187500.02, -87023.43, -5370.95, -51048.79, -85594.52, -35378.23, 0.07, 0.73, 0.68
85, -53056.65, -59189.63, -187500.02, -81165.41, -5646.43, -51018.37, -83960.32, -36009.22, 0.00, 0.00, 0.00
86, -53715.66, -59828.35, -187500.02, -70791.46, -5969.08, -51459.05, -83157.45, -36664.50, 0.00, 0.00, 0.00
87, -52887.04, -59724.66, -187500.02, -75933.23, -5685.14, -51585.75, -84891.38, -36047.35, 0.00, 0.00, 0.00
88, -52238.28, -59081.27, -187500.02, -86439.24, -5368.04, -51121.37, -85727.72, -35393.34, 0.00, 0.00, 0.00
89, -52891.04, -59109.79, -187500.02, -82940.01, -5569.25, -50977.11, -84265.27, -35882.53, 0.00, 0.00, 0.00
90, -53716.80, -59723.90, -187500.02, -71741.38, -5962.37, -51371.59, -83100.07, -36666.94, 0.00, 0.00, 0.00
91, -53086.13, -59831.46, -187500.02, -73884.94, -5761.05, -51634.00, -84554.05, -36239.80, 0.00, 0.00, 0.00
92, -52269.87, -59195.73, -187500.02, -85393.52, -5379.35, -51231.02, -85820.23, -35457.73, 0.00, 0.00, 0.00
93, -52770.63, -59084.35, -187500.02, -84482.53, -5518.58, -50998.66, -84623.41, -35792.94, 0.00, 0.00, 0.00
94, -53688.66, -59652.04, -187500.02, -73245.16, -5938.12, -51357.96, -83205.51, -36641.14, 0.06, 0.72, 0.66
95, -53331.75, -59898.80, -187500.02, -72199.15, -5849.79, -51733.54, -84199.84, -36495.91, 0.00, 0.00, 0.00
96, -52353.39, -59281.45, -187500.02, -83929.28, -5414.93, -51387.93, -85736.05, -35601.75, 0.00, 0.00, 0.00
97, -52629.19, -59025.61, -187500.02, -85692.95, -5450.16, -51064.93, -84848.76, -35702.02, 0.00, 0.00, 0.00
98, -53601.09, -59522.94, -187500.02, -75114.58, -5864.54, -51324.27, -83242.61, -36578.56, 0.00, 0.00, 0.00
99, -53534.80, -59939.64, -187500.02, -70983.02, -5920.75, -51752.04, -83792.58, -36684.96, 0.00, 0.00, 0.00
100, -52485.36, -59431.48, -187500.02, -82079.94, -5488.56, -51526.49, -85615.63, -35768.94, 0.00, 0.00, 0.00
101, -52522.06, -59030.04, -187500.02, -86516.80, -5426.42, -51124.61, -85123.17, -35665.70, 0.00, 0.00, 0.00
102, -53490.00, -59427.07, -187500.02, -77157.59, -5824.98, -51280.84, -83409.69, -36483.50, 0.00, 0.00, 0.00
103, -53700.06, -59957.14, -187500.02, -70334.39, -5998.29, -51726.16, -83464.54, -36789.54, 0.00, 0.00, 0.00
104, -52641.62, -59596.81, -187500.02, -80027.11, -5578.82, -51610.55, -85402.59, -35913.87, 0.06, 0.73, 0.67
105, -52430.95, -59094.90, -187500.02, -86903.78, -5425.10, -51159.39, -85349.95, -35627.38, 0.00, 0.00, 0.00
106, -53293.40, -59376.69, -187500.02, -79248.20, -5776.38, -51211.67, -83641.39, -36354.13, 0.00, 0.00, 0.00
107, -53747.50, -59977.53, -187500.02, -70323.21, -6053.59, -51670.95, -83215.81, -36865.49, 0.00, 0.00, 0.00
108, -52767.55, -59720.53, -187500.02, -77872.29, -5685.70, -51675.76, -85103.13, -36085.97, 0.00, 0.00, 0.00
109, -52339.34, -59123.78, -187500.02, -86766.49, -5459.32, -51202.32, -85510.53, -35605.93, 0.00, 0.00, 0.00
110, -53102.25, -59279.30, -187500.02, -81200.11, -5729.67, -51141.59, -83925.88, -36213.80, 0.00, 0.00, 0.00
111, -53735.69, -59877.53, -187500.02, -70908.88, -6049.12, -51540.57, -83088.83, -36848.68, 0.00, 0.00, 0.00
112, -52947.75, -59835.19, -187500.02, -75645.74, -5768.96, -51679.89, -84768.14, -36258.60, 0.00, 0.00, 0.00
113, -52299.57, -59193.47, -187500.02, -85934.84, -5445.82, -51227.34, -85633.55, -35604.20, 0.00, 0.00, 0.00
114, -52927.90, -59203.36, -187500.02, -82869.94, -5656.82, -51094.23, -84273.16, -36076.74, 0.00, 0.00, 0.00
115, -53710.28, -59766.64, -187500.02, -72348.93, -6044.38, -51465.07, -83159.13, -36816.88, 0.07, 0.73, 0.68
116, -53149.18, -59882.63, -187500.02, -73761.47, -5887.38, -51698.38, -84440.40, -36449.14, 0.00, 0.00, 0.00
117, -52404.71, -59324.46, -187500.02, -83763.56, -5538.74, -51334.00, -85583.75, -35735.90, 0.00, 0.00, 0.00
118, -52812.19, -59195.06, -187500.02, -83222.90, -5635.99, -51129.59, -84580.80, -36000.21, 0.00, 0.00, 0.00
119, -53554.69, -59652.58, -187500.02, -74438.84, -5999.23, -51445.13, -83474.87, -36697.70, 0.00, 0.00, 0.00
120, -53241.74, -59871.02, -187500.02, -73897.84, -5953.36, -51695.09, -84307.80, -36522.77, 0.00, 0.00, 0.00
121, -52423.11, -59389.16, -187500.02, -83507.66, -5589.10, -51398.41, -85591.53, -35769.45, 0.00, 0.00, 0.00
122, -52642.96, -59129.39, -187500.02, -85280.77, -5614.06, -51133.77, -84890.80, -35869.09, 0.00, 0.00, 0.00
123, -53557.82, -59571.62, -187500.02, -75382.10, -6014.05, -51344.66, -83366.23, -36664.62, 0.00, 0.00, 0.00
124, -53521.92, -59975.45, -187500.02, -71140.88, -6066.98, -51725.49, -83835.18, -36744.86, 0.00, 0.00, 0.00
125, -52541.48, -59500.70, -187500.02, -81336.14, -5662.52, -51514.09, -85557.65, -35881.54, 0.07, 0.73, 0.68
126, -52555.79, -59093.65, -187500.02, -85515.76, -5591.83, -51133.66, -85117.85, -35783.44, 0.00, 0.00, 0.00
127, -53367.85, -59443.43, -187500.02, -77623.52, -5917.83, -51307.18, -83665.20, -36478.58, 0.00, 0.00, 0.00
128, -53516.31, -59876.36, -187500.02, -72588.12, -6048.56, -51677.34, -83773.02, -36696.00, 0.00, 0.00, 0.00
129, -52731.47, -59597.86, -187500.02, -79968.86, -5760.67, -51556.33, -85194.43, -36023.50, 0.00, 0.00, 0.00
130, -52586.41, -59180.29, -187500.02, -84827.08, -5637.49, -51201.47, -85101.76, -35796.05, 0.00, 0.00, 0.00
131, -53301.18, -59404.95, -187500.02, -78497.18, -5912.10, -51292.42, -83803.08, -36393.38, 0.00, 0.00, 0.00
132, -53613.36, -59859.11, -187500.02, -72302.08, -6099.63, -51666.10, -83644.25, -36756.93, 0.00, 0.00, 0.00
133, -52856.66, -59686.55, -187500.02, -78425.16, -5807.90, -51616.17, -85071.72, -36133.96, 0.00, 0.00, 0.00
134, -52546.20, -59226.71, -187500.02, -84845.61, -5615.70, -51245.20, -85307.20, -35777.18, 0.00, 0.00, 0.00
135, -53214.90, -59360.57, -187500.02, -80011.42, -5852.16, -51273.67, -84065.13, -36323.75, 0.05, 0.72, 0.68
136, -53663.03, -59827.73, -187500.02, -72560.11, -6095.57, -51638.65, -83575.80, -36799.20, 0.00, 0.00, 0.00
137, -52998.24, -59750.88, -187500.02, -76740.09, -5861.95, -51678.89, -84872.56, -36286.47, 0.00, 0.00, 0.00
138, -52511.15, -59272.11, -187500.02, -84483.96, -5600.16, -51309.01, -85452.64, -35785.75, 0.00, 0.00, 0.00
139, -53042.05, -59265.47, -187500.02, -81503.04, -5764.34, -51232.12, -84310.53, -36180.01, 0.00, 0.00, 0.00
140, -53644.18, -59722.38, -187500.02, -73194.83, -6062.17, -51578.23, -83487.67, -36762.11, 0.00, 0.00, 0.00
141, -53158.21, -59820.57, -187500.02, -75021.99, -5915.08, -51742.32, -84585.59, -36413.29, 0.00, 0.00, 0.00
142, -52521.37, -59330.82, -187500.02, -83704.38, -5608.37, -51383.75, -85511.98, -35778.01, 0.00, 0.00, 0.00
143, -52901.21, -59214.46, -187500.02, -82830.17, -5716.23, -51203.78, -84560.31, -36036.58, 0.00, 0.00, 0.00
144, -53597.47, -59645.74, -187500.02, -74259.84, -6039.58, -51487.87, -83503.48, -36691.53, 0.00, 0.00, 0.00
145, -53315.93, -59880.54, -187500.02, -73625.77, -5965.05, -51723.48, -84310.30, -36524.56, 0.06, 0.71, 0.68
146, -52557.20, -59408.63, -187500.02, -82547.83, -5621.44, -51432.39, -85523.49, -35830.32, 0.00, 0.00, 0.00
147, -52775.57, -59158.74, -187500.02, -83861.35, -5657.14, -51190.84, -84848.91, -35944.78, 0.00, 0.00, 0.00
148, -53545.26, -59562.46, -187500.02, -75651.87, -5994.11, -51438.07, -83636.58, -36627.11, 0.00, 0.00, 0.00
149, -53489.15, -59909.33, -187500.02, -72669.70, -6027.28, -51760.96, -84103.27, -36674.11, 0.00, 0.00, 0.00
150, -52658.25, -59538.83, -187500.02, -81210.52, -5654.30, -51544.66, -85510.59, -35939.61, 0.00, 0.00, 0.00
151, -52680.36, -59158.79, -187500.02, -84653.92, -5599.13, -51235.54, -85132.45, -35862.68, 0.00, 0.00, 0.00
152, -53458.53, -59471.98, -187500.02, -77280.04, -5924.98, -51398.55, -83811.20, -36515.86, 0.00, 0.00, 0.00
153, -53607.68, -59886.00, -187500.02, -72194.16, -6039.33, -51744.31, -83886.18, -36737.68, 0.00, 0.00, 0.00
154, -52785.79, -59593.59, -187500.02, -79640.42, -5692.32, -51623.36, -85354.85, -36039.82, 0.00, 0.00, 0.00
155, -52619.02, -59177.31, -187500.02, -85046.06, -5561.11, -51271.37, -85321.27, -35794.80, 0.08, 0.71, 0.69
156, -53339.93, -59393.75, -187500.02, -78953.55, -5852.89, -51355.95, -83976.98, -36389.24, 0.00, 0.00, 0.00
157, -53673.89, -59851.87, -187500.02, -72319.91, -6050.75, -51717.11, -83705.47, -36761.06, 0.00, 0.00, 0.00
158, -52929.96, -59702.45, -187500.02, -78132.13, -5768.18, -51697.46, -85130.21, -36159.85, 0.00, 0.00, 0.00
159, -52580.71, -59246.52, -187500.02, -84957.41, -5570.66, -51320.70, -85442.87, -35772.25, 0.00, 0.00, 0.00
160, -53222.72, -59388.25, -187500.02, -80397.03, -5815.48, -51312.94, -84183.39, -36287.18, 0.00, 0.00, 0.00
161, -53759.21, -59845.83, -187500.02, -72113.95, -6088.35, -51663.42, -83514.09, -36819.18, 0.00, 0.00, 0.00
162, -53093.66, -59795.56, -187500.02, -76010.79, -5830.81, -51772.25, -84891.74, -36323.95, 0.00, 0.00, 0.00
163, -52496.13, -59253.27, -187500.02, -85403.02, -5516.66, -51408.09, -85732.20, -35728.75, 0.00, 0.00, 0.00
164, -53052.00, -59229.39, -187500.02, -83001.21, -5699.02, -51283.66, -84488.83, -36148.11, 0.00, 0.00, 0.00
165, -53827.00, -59780.32, -187500.02, -72928.69, -6078.82, -51631.54, -83321.53, -36884.31, 0.08, 0.72, 0.71
166, -53350.84, -59938.46, -187500.02, -73936.28, -5917.00, -51880.83, -84493.23, -36582.12, 0.00, 0.00, 0.00
167, -52553.69, -59353.71, -187500.02, -84077.56, -5536.19, -51507.56, -85686.23, -35834.96, 0.00, 0.00, 0.00
168, -52938.07, -59216.54, -187500.02, -83851.65, -5645.65, -51293.92, -84695.70, -36083.02, 0.00, 0.00, 0.00
169, -53729.43, -59693.95, -187500.02, -74642.73, -6019.24, -51573.23, -83441.05, -36800.29, 0.00, 0.00, 0.00
170, -53510.81, -59984.50, -187500.02, -73037.66, -5970.62, -51863.38, -84173.20, -36710.28, 0.00, 0.00, 0.00
171, -52635.43, -59494.33, -187500.02, -83063.30, -5571.42, -51588.47, -85642.05, -35925.71, 0.00, 0.00, 0.00
172, -52780.09, -59155.41, -187500.02, -85375.48, -5575.46, -51271.64, -84989.33, -35963.87, 0.00, 0.00, 0.00
173, -53652.48, -59576.92, -187500.02, -76021.72, -5974.69, -51462.07, -83487.02, -36720.88, 0.00, 0.00, 0.00
174, -53657.91, -59994.00, -187500.02, -71465.63, -6051.76, -51846.57, -83871.03, -36840.86, 0.00, 0.00, 0.00
175, -52676.82, -59581.50, -187500.02, -81509.66, -5627.54, -51653.70, -85670.59, -35986.15, 0.08, 0.70, 0.70
176, -52634.40, -59172.20, -187500.02, -86364.95, -5546.56, -51240.21, -85370.18, -35850.59, 0.00, 0.00, 0.00
177, -53495.16, -59487.20, -187500.02, -77838.70, -5931.84, -51352.33, -83735.35, -36591.61, 0.00, 0.00, 0.00
178, -53755.61, -60004.53, -187500.02, -70762.71, -6119.89, -51780.54, -83655.06, -36919.07, 0.00, 0.00, 0.00
179, -52803.63, -59682.44, -187500.02, -79393.64, -5726.49, -51731.12, -85519.96, -36129.18, 0.00, 0.00, 0.00
180, -52548.64, -59174.14, -187500.02, -86476.62, -5555.79, -51304.52, -85635.52, -35803.52, 0.00, 0.00, 0.00
181, -53355.98, -59409.19, -187500.02, -79724.22, -5889.28, -51321.37, -84034.64, -36466.89, 0.00, 0.00, 0.00
182, -53880.40, -59998.47, -187500.02, -70822.57, -6171.99, -51754.10, -83496.16, -37016.70, 0.00, 0.00, 0.00
183, -52992.14, -59804.71, -187500.02, -77273.33, -5806.49, -51813.24, -85256.81, -36319.15, 0.00, 0.00, 0.00
184, -52480.57, -59209.79, -187500.02, -86222.88, -5552.93, -51371.62, -85782.69, -35766.03, 0.00, 0.00, 0.00
185, -53191.99, -59324.37, -187500.02, -81504.27, -5821.44, -51299.73, -84262.09, -36300.06, 0.08, 0.71, 0.70
186, -53872.20, -59902.43, -187500.02, -71395.83, -6174.94, -51704.66, -83316.52, -36960.06, 0.00, 0.00, 0.00
187, -53165.77, -59924.40, -187500.02, -75248.04, -5907.19, -51888.99, -84883.79, -36453.86, 0.00, 0.00, 0.00
188, -52465.93, -59269.71, -187500.02, -85553.76, -5551.88, -51447.19, -85856.42, -35766.39, 0.00, 0.00, 0.00
189, -53039.35, -59255.05, -187500.02, -83142.34, -5748.02, -51271.46, -84541.49, -36170.22, 0.00, 0.00, 0.00
190, -53846.98, -59788.05, -187500.02, -72540.95, -6140.65, -51615.94, -83283.18, -36922.82, 0.00, 0.00, 0.00
191, -53347.80, -59950.21, -187500.02, -73450.13, -5964.18, -51881.57, -84494.28, -36604.89, 0.00, 0.00, 0.00
192, -52507.60, -59372.07, -187500.02, -84473.25, -5564.94, -51525.69, -85858.01, -35819.27, 0.00, 0.00, 0.00
193, -52896.12, -59179.86, -187500.02, -84539.70, -5672.63, -51262.92, -84815.88, -36047.98, 0.00, 0.00, 0.00
194, -53808.45, -59687.20, -187500.02, -74054.73, -6096.44, -51543.43, -83325.38, -36849.58, 0.00, 0.00, 0.00
195, -53595.14, -59998.38, -187500.02, -71864.43, -6045.99, -51892.28, -84105.84, -36774.81, 0.08, 0.71, 0.70
196, -52705.97, -59491.20, -187500.02, -81958.75, -5636.98, -51623.70, -85644.22, -35973.21, 0.00, 0.00, 0.00
197, -52833.87, -59184.73, -187500.02, -84329.64, -5633.56, -51309.86, -85008.87, -35995.07, 0.00, 0.00, 0.00
198, -53600.64, -59548.64, -187500.02, -76234.73, -5974.44, -51517.26, -83670.02, -36672.62, 0.00, 0.00, 0.00
199, -53587.79, -59889.24, -187500.02, -73017.20, -6004.77, -51837.09, -84043.77, -36751.16, 0.00, 0.00, 0.00
200, -52842.41, -59576.36, -187500.02, -81028.70, -5668.78, -51659.39, -85406.91, -36084.03, 0.00, 0.00, 0.00
201, -52850.96, -59248.68, -187500.02, -84408.50, -5611.09, -51363.82, -85081.94, -35993.71, 0.00, 0.00, 0.00
202, -53568.39, -59554.23, -187500.02, -77297.09, -5928.11, -51520.90, -83786.92, -36628.23, 0.00, 0.00, 0.00
203, -53716.31, -59946.37, -187500.02, -72366.03, -6042.77, -51847.80, -83846.95, -36853.22, 0.00, 0.00, 0.00
204, -52954.79, -59660.52, -187500.02, -79428.84, -5730.36, -51737.89, -85273.27, -36206.00, 0.00, 0.00, 0.00
205, -52771.59, -59266.57, -187500.02, -84647.26, -5601.86, -51390.23, -85277.20, -35952.89, 0.09, 0.70, 0.69
206, -53465.13, -59464.20, -187500.02, -78604.76, -5883.29, -51440.66, -83940.99, -36531.24, 0.00, 0.00, 0.00
207, -53882.21, -59941.92, -187500.02, -70895.80, -6113.81, -51788.23, -83486.38, -36970.72, 0.00, 0.00, 0.00
208, -53091.67, -59806.27, -187500.02, -76745.96, -5809.67, -51826.34, -85080.59, -36338.39, 0.00, 0.00, 0.00
209, -52631.34, -59268.11, -187500.02, -84929.81, -5574.12, -51418.06, -85605.55, -35849.67, 0.00, 0.00, 0.00
210, -53263.71, -59343.01, -187500.02, -80810.05, -5808.19, -51364.93, -84280.16, -36348.23, 0.00, 0.00, 0.00
211, -53876.06, -59860.68, -187500.02, -71812.02, -6108.28, -51702.76, -83426.07, -36943.61, 0.00, 0.00, 0.00
212, -53240.33, -59886.87, -187500.02, -74960.23, -5875.07, -51850.82, -84775.80, -36480.39, 0.00, 0.00, 0.00
213, -52621.88, -59333.17, -187500.02, -84204.38, -5580.27, -51477.77, -85672.83, -35865.81, 0.00, 0.00, 0.00
214, -53129.74, -59282.43, -187500.02, -82185.55, -5755.37, -51341.33, -84533.94, -36230.25, 0.00, 0.00, 0.00
215, -53862.72, -59793.46, -187500.02, -72876.09, -6092.84, -51655.15, -83429.67, -36900.36, 0.09, 0.72, 0.70
216, -53451.49, -59956.90, -187500.02, -73562.29, -5966.91, -51898.67, -84478.93, -36635.27, 0.00, 0.00, 0.00
217, -52685.21, -59444.95, -187500.02, -83375.80, -5623.68, -51588.85, -85704.30, -35922.98, 0.00, 0.00, 0.00
218, -52995.85, -59245.87, -187500.02, -83565.99, -5691.71, -51352.21, -84793.66, -36108.39, 0.00, 0.00, 0.00
219, -53781.47, -59680.65, -187500.02, -74520.09, -6037.47, -51604.16, -83511.79, -36812.94, 0.00, 0.00, 0.00
220, -53611.93, -60003.57, -187500.02, -72391.46, -6017.51, -51902.85, -84146.65, -36768.44, 0.00, 0.00, 0.00
221, -52772.55, -59575.89, -187500.02, -81829.64, -5661.52, -51657.20, -85599.78, -36015.19, 0.00, 0.00, 0.00
222, -52907.89, -59248.75, -187500.02, -84108.00, -5663.44, -51358.79, -85013.59, -36044.96, 0.00, 0.00, 0.00
223, -53655.34, -59596.05, -187500.02, -76249.24, -5977.77, -51562.90, -83723.69, -36704.09, 0.00, 0.00, 0.00
224, -53652.72, -59956.88, -187500.02, -72889.35, -6024.15, -51887.02, -84065.11, -36798.37, 0.00, 0.00, 0.00
225, -52849.85, -59619.01, -187500.02, -80880.23, -5693.23, -51694.49, -85445.82, -36107.99, 0.08, 0.72, 0.70
226, -52824.57, -59279.30, -187500.02, -84524.70, -5622.83, -51368.89, -85152.63, -35992.99, 0.00, 0.00, 0.00
227, -53567.74, -59557.09, -187500.02, -77557.27, -5946.21, -51531.39, -83854.84, -36630.20, 0.00, 0.00, 0.00
228, -53743.09, -59956.14, -187500.02, -72351.86, -6073.95, -51872.27, -83858.06, -36875.35, 0.00, 0.00, 0.00
229, -52961.32, -59720.26, -187500.02, -79187.91, -5757.29, -51760.71, -85283.66, -36221.36, 0.00, 0.00, 0.00
230, -52770.77, -59336.61, -187500.02, -84539.77, -5639.99, -51423.47, -85331.78, -35976.61, 0.00, 0.00, 0.00
231, -53452.56, -59539.01, -187500.02, -78861.27, -5910.47, -51505.44, -84061.82, -36552.68, 0.00, 0.00, 0.00
232, -53781.78, -59918.92, -187500.02, -72438.23, -6090.94, -51844.22, -83760.97, -36931.43, 0.00, 0.00, 0.00
233, -53100.64, -59812.55, -187500.02, -77816.12, -5824.51, -51822.83, -85122.80, -36382.58, 0.00, 0.00, 0.00
234, -52750.32, -59356.02, -187500.02, -84413.66, -5637.67, -51466.86, -85471.26, -36003.03, 0.00, 0.00, 0.00
235, -53335.20, -59431.21, -187500.02, -80200.88, -5848.38, -51458.54, -84263.70, -36477.13, 0.07, 0.72, 0.69
236, -53838.89, -59876.16, -187500.02, -72705.91, -6108.22, -51816.68, -83658.82, -36988.09, 0.00, 0.00, 0.00
237, -53254.41, -59891.48, -187500.02, -76162.49, -5900.55, -51902.78, -84886.58, -36545.75, 0.00, 0.00, 0.00
238, -52749.85, -59413.21, -187500.02, -83864.77, -5659.10, -51556.84, -85561.34, -36042.03, 0.00, 0.00, 0.00
239, -53226.79, -59401.46, -187500.02, -81449.51, -5813.49, -51464.58, -84497.17, -36394.11, 0.00, 0.00, 0.00
240, -53841.44, -59842.46, -187500.02, -73370.20, -6095.45, -51792.99, -83626.73, -36975.57, 0.00, 0.00, 0.00
241, -53422.72, -59965.41, -187500.02, -74665.33, -5952.83, -51955.89, -84628.40, -36685.61, 0.00, 0.00, 0.00
242, -52774.55, -59489.88, -187500.02, -82978.91, -5676.02, -51617.73, -85584.65, -36073.97, 0.00, 0.00, 0.00
243, -53099.94, -59340.88, -187500.02, -82505.52, -5774.48, -51441.60, -84714.77, -36286.02, 0.00, 0.00, 0.00
244, -53794.07, -59732.78, -187500.02, -74384.01, -6088.21, -51731.01, -83644.29, -36932.57, 0.00, 0.00, 0.00
245, -53593.51, -59990.71, -187500.02, -73435.18, -6040.25, -51989.73, -84354.36, -36845.57, 0.05, 0.70, 0.69
246, -52859.44, -59569.25, -187500.02, -81816.41, -5732.42, -51729.16, -85548.23, -36172.34, 0.00, 0.00, 0.00
247, -53029.63, -59353.63, -187500.02, -83365.27, -5757.16, -51486.26, -84953.50, -36231.64, 0.00, 0.00, 0.00
248, -53730.39, -59666.73, -187500.02, -75685.48, -6043.33, -51692.68, -83742.71, -36861.18, 0.00, 0.00, 0.00
249, -53712.00, -59993.04, -187500.02, -72598.38, -6085.53, -52006.94, -84101.38, -36940.77, 0.00, 0.00, 0.00
250, -52959.98, -59673.99, -187500.02, -80462.61, -5781.88, -51825.78, -85442.63, -36288.05, 0.00, 0.00, 0.00
251, -52954.86, -59335.70, -187500.02, -83951.83, -5728.35, -51537.22, -85151.20, -36204.37, 0.00, 0.00, 0.00
252, -53659.50, -59599.85, -187500.02, -77122.70, -6009.91, -51675.04, -83868.70, -36813.81, 0.00, 0.00, 0.00
253, -53840.97, -60017.02, -187500.02, -72176.28, -6121.72, -52010.65, -83875.90, -37058.50, 0.00, 0.00, 0.00
254, -53089.88, -59760.11, -187500.02, -78950.47, -5820.68, -51912.17, -85250.24, -36423.42, 0.00, 0.00, 0.00
255, -52904.45, -59367.82, -187500.02, -84199.94, -5687.56, -51568.00, -85277.84, -36174.44, 0.05, 0.71, 0.69
0, -53571.86, -59542.92, -187500.02, -78621.16, -5946.06, -51644.42, -84003.30, -36731.61, 0.00, 0.00, 0.00
1, -53907.73, -59945.54, -187500.02, -72158.96, -6140.23, -51993.64, -83663.16, -37113.42, 0.00, 0.00, 0.00
2, -53234.61, -59825.83, -187500.02, -77365.30, -5883.85, -51981.10, -85001.73, -36576.26, 0.00, 0.00, 0.00
3, -52859.73, -59378.91, -187500.02, -84087.41, -5678.10, -51616.43, -85380.11, -36178.22, 0.00, 0.00, 0.00
4, -53448.65, -59474.55, -187500.02, -80056.95, -5898.02, -51601.41, -84185.98, -36657.02, 0.00, 0.00, 0.00
5, -53955.99, -59934.73, -187500.02, -72557.85, -6148.65, -51943.24, -83562.15, -37167.44, 0.00, 0.00, 0.00
6, -53387.41, -59937.59, -187500.02, -75826.08, -5938.63, -52027.28, -84758.28, -36742.98, 0.00, 0.00, 0.00
7, -52851.19, -59433.24, -187500.02, -83587.85, -5683.29, -51672.63, -85442.16, -36211.90, 0.00, 0.00, 0.00
8, -53316.08, -59402.89, -187500.02, -81358.80, -5836.91, -51588.83, -84387.00, -36558.31, 0.00, 0.00, 0.00
9, -53927.49, -59829.29, -187500.02, -73327.45, -6112.24, -51906.40, -83492.57, -37145.27, 0.00, 0.00, 0.00
10, -53556.92, -59980.26, -187500.02, -74408.02, -6005.78, -52105.98, -84455.91, -36913.10, 0.06, 0.70, 0.70
11, -52927.48, -59567.93, -187500.02, -82733.70, -5714.42, -51805.69, -85441.87, -36317.80, 0.00, 0.00, 0.00
12, -53224.42, -59386.28, -187500.02, -82442.64, -5785.79, -51613.21, -84590.02, -36522.77, 0.00, 0.00, 0.00
13, -53898.46, -59759.55, -187500.02, -74359.24, -6077.19, -51875.91, -83488.95, -37160.31, 0.00, 0.00, 0.00
14, -53707.75, -60031.24, -187500.02, -73201.18, -6037.00, -52143.96, -84144.70, -37096.16, 0.00, 0.00, 0.00
15, -52970.39, -59639.28, -187500.02, -81527.63, -5714.49, -51908.01, -85331.56, -36449.46, 0.00, 0.00, 0.00
16, -53117.42, -59391.11, -187500.02, -83211.49, -5723.95, -51656.76, -84732.38, -36511.44, 0.00, 0.00, 0.00
17, -53815.09, -59729.49, -187500.02, -75579.72, -6018.54, -51854.26, -83497.45, -37146.77, 0.00, 0.00, 0.00
18, -53820.68, -60059.76, -187500.02, -72298.86, -6070.49, -52178.38, -83817.16, -37256.11, 0.00, 0.00, 0.00
19, -53051.62, -59743.13, -187500.02, -80055.34, -5749.76, -52003.05, -85160.91, -36590.96, 0.00, 0.00, 0.00
20, -53044.13, -59428.21, -187500.02, -83663.07, -5691.69, -51714.36, -84906.14, -36502.23, 0.08, 0.70, 0.69
21, -53752.41, -59687.49, -187500.02, -76893.48, -5975.65, -51849.23, -83644.85, -37118.96, 0.00, 0.00, 0.00
22, -53939.96, -60057.86, -187500.02, -71750.82, -6110.12, -52172.14, -83620.84, -37372.38, 0.00, 0.00, 0.00
23, -53199.79, -59857.14, -187500.02, -78366.45, -5838.74, -52084.50, -85030.55, -36760.88, 0.00, 0.00, 0.00
24, -52986.84, -59449.36, -187500.02, -83737.57, -5707.38, -51733.94, -85117.36, -36504.51, 0.00, 0.00, 0.00
25, -53643.16, -59625.89, -187500.02, -78242.86, -5956.74, -51773.19, -83870.49, -37064.31, 0.00, 0.00, 0.00
26, -54000.94, -60042.80, -187500.02, -71638.41, -6153.79, -52077.13, -83533.27, -37449.50, 0.00, 0.00, 0.00
27, -53338.91, -59936.18, -187500.02, -76639.86, -5904.77, -52066.69, -84901.78, -36901.93, 0.00, 0.00, 0.00
28, -52970.95, -59486.55, -187500.02, -83412.91, -5711.56, -51702.87, -85327.05, -36513.85, 0.00, 0.00, 0.00
29, -53530.50, -59562.01, -187500.02, -79475.38, -5926.27, -51661.99, -84164.91, -36973.14, 0.00, 0.00, 0.00
30, -54026.09, -59999.32, -187500.02, -71887.27, -6184.21, -51985.82, -83523.62, -37483.63, 0.06, 0.72, 0.69
31, -53471.56, -60014.59, -187500.02, -74908.94, -5981.04, -52078.04, -84685.44, -37073.30, 0.00, 0.00, 0.00
32, -52931.54, -59542.74, -187500.02, -82627.29, -5718.13, -51727.57, -85403.51, -36537.21, 0.00, 0.00, 0.00
33, -53396.46, -59508.99, -187500.02, -80462.23, -5878.49, -51625.53, -84373.23, -36887.44, 0.00, 0.00, 0.00
34, -54013.73, -59948.70, -187500.02, -72388.45, -6163.63, -51928.33, -83470.30, -37477.75, 0.00, 0.00, 0.00
35, -53627.02, -60090.99, -187500.02, -73255.56, -6048.18, -52106.77, -84409.84, -37229.06, 0.00, 0.00, 0.00
36, -52985.05, -59642.75, -187500.02, -81473.94, -5769.79, -51803.88, -85417.01, -36633.95, 0.00, 0.00, 0.00
37, -53293.64, -59515.52, -187500.02, -81256.27, -5855.98, -51624.08, -84615.12, -36845.53, 0.00, 0.00, 0.00
38, -53937.48, -59895.99, -187500.02, -73227.45, -6162.06, -51885.62, -83514.74, -37469.50, 0.00, 0.00, 0.00
39, -53740.66, -60142.69, -187500.02, -71939.35, -6119.71, -52142.91, -84139.88, -37394.04, 0.00, 0.00, 0.00
40, -53018.98, -59769.50, -187500.02, -80117.91, -5818.14, -51911.23, -85343.27, -36761.38, 0.06, 0.71, 0.69
41, -53142.12, -59528.30, -187500.02, -81872.88, -5817.51, -51665.34, -84793.24, -36811.38, 0.00, 0.00, 0.00
42, -53846.56, -59864.05, -187500.02, -74345.59, -6115.68, -51873.37, -83564.85, -37464.14, 0.00, 0.00, 0.00
43, -53861.78, -60191.50, -187500.02, -71014.53, -6176.28, -52198.23, -83853.23, -37587.81, 0.00, 0.00, 0.00
44, -53079.25, -59865.05, -187500.02, -78623.58, -5857.90, -52027.75, -85196.45, -36918.87, 0.00, 0.00, 0.00
45, -53044.84, -59535.95, -187500.02, -82275.02, -5807.70, -51735.05, -84972.21, -36822.51, 0.00, 0.00, 0.00
46, -53738.71, -59777.41, -187500.02, -75672.27, -6080.55, -51865.12, -83705.76, -37426.70, 0.00, 0.00, 0.00
47, -53923.40, -60150.98, -187500.02, -70595.68, -6187.77, -52189.51, -83639.42, -37665.80, 0.00, 0.00, 0.00
48, -53192.84, -59941.23, -187500.02, -77099.37, -5904.21, -52112.78, -85006.19, -37055.55, 0.00, 0.00, 0.00
49, -52967.24, -59535.23, -187500.02, -82478.59, -5770.10, -51785.61, -85112.04, -36790.93, 0.00, 0.00, 0.00
50, -53612.94, -59714.16, -187500.02, -77155.70, -6022.16, -51852.16, -83863.83, -37341.96, 0.06, 0.71, 0.69
51, -53965.74, -60120.07, -187500.02, -70694.07, -6198.76, -52189.67, -83473.68, -37722.97, 0.00, 0.00, 0.00
52, -53287.68, -60010.79, -187500.02, -75640.40, -5944.49, -52199.52, -84764.02, -37180.47, 0.00, 0.00, 0.00
53, -52912.16, -59571.67, -187500.02, -82436.27, -5754.48, -51866.48, -85197.05, -36786.54, 0.00, 0.00, 0.00
54, -53473.80, -59633.51, -187500.02, -78705.81, -5953.92, -51846.34, -84044.41, -37239.82, 0.00, 0.00, 0.00
55, -53991.48, -60057.14, -187500.02, -71280.29, -6207.50, -52179.16, -83364.83, -37756.63, 0.00, 0.00, 0.00
56, -53448.59, -60075.65, -187500.02, -74271.47, -6019.03, -52279.92, -84509.28, -37351.48, 0.00, 0.00, 0.00
57, -52921.51, -59634.07, -187500.02, -82040.98, -5772.96, -51947.26, -85267.34, -36826.44, 0.00, 0.00, 0.00
58, -53360.45, -59582.04, -187500.02, -80066.83, -5908.17, -51827.64, -84275.08, -37149.31, 0.00, 0.00, 0.00
59, -53995.87, -59996.39, -187500.02, -72144.99, -6204.13, -52135.91, -83365.90, -37758.91, 0.00, 0.00, 0.00
60, -53637.14, -60148.18, -187500.02, -72963.84, -6090.60, -52340.61, -84291.80, -37536.67, 0.06, 0.70, 0.70
61, -52964.91, -59695.52, -187500.02, -81218.55, -5789.10, -52025.63, -85326.87, -36899.27, 0.00, 0.00, 0.00
62, -53235.68, -59526.36, -187500.02, -81134.86, -5868.74, -51812.04, -84528.05, -37050.07, 0.00, 0.00, 0.00
63, -53908.83, -59902.05, -187500.02, -73206.61, -6173.57, -52049.63, -83420.46, -37623.86, 0.00, 0.00, 0.00
64, -53720.05, -60137.86, -187500.02, -71823.22, -6124.76, -52306.84, -84033.88, -37498.18, 0.00, 0.00, 0.00
65, -52972.94, -59763.87, -187500.02, -79983.01, -5807.14, -52067.14, -85281.60, -36886.41, 0.00, 0.00, 0.00
66, -53115.16, -59551.19, -187500.02, -81826.52, -5834.16, -51817.54, -84815.97, -36971.44, 0.00, 0.00, 0.00
67, -53821.99, -59873.30, -187500.02, -74390.27, -6120.42, -51994.76, -83637.99, -37580.03, 0.00, 0.00, 0.00
68, -53842.09, -60200.55, -187500.02, -70974.30, -6160.63, -52293.13, -83891.68, -37676.66, 0.00, 0.00, 0.00
