%OpenBCI Raw EEG Data
%
%Sample Rate = 250.0 Hz
%First Column = SampleIndex
%Other Columns = EEG data in microvolts followed by Accel Data (in G) interleaved with Aux Data
0, -61706.93, -60757.96, -134956.72, -51702.46, -17591.34, -57978.05, -81593.72, -43374.61, -0.01, 0.40, 0.31
1, -62669.24, -61517.48, -129436.22, -39528.25, -18180.73, -58881.91, -82277.30, -44274.87, 0.00, 0.00, 0.00
2, -62898.99, -61912.34, -124486.77, -31053.88, -18577.38, -59152.46, -82714.93, -44559.90, 0.00, 0.00, 0.00
3, -61856.24, -61120.02, -129897.85, -43261.73, -17979.94, -58188.85, -82011.72, -43602.64, 0.00, 0.00, 0.00
4, -61586.74, -60695.91, -134845.13, -52197.60, -17563.22, -57887.13, -81556.51, -43290.23, 0.00, 0.00, 0.00
5, -62485.57, -61362.84, -130528.73, -42171.46, -18074.36, -58734.55, -82145.99, -44122.25, 0.00, 0.00, 0.00
6, -62958.29, -61940.66, -124385.87, -30938.97, -18603.00, -59234.91, -82750.55, -44630.00, 0.00, 0.00, 0.00
7, -62029.24, -61287.50, -128352.56, -40528.52, -18113.12, -58364.07, -82187.00, -43781.41, -0.06, 0.78, 0.61
8, -61515.78, -60657.54, -134453.58, -52102.50, -17539.55, -57824.03, -81558.96, -43234.48, 0.00, 0.00, 0.00
9, -62283.45, -61170.33, -131627.86, -44823.61, -17926.05, -58540.29, -81999.65, -43929.91, 0.00, 0.00, 0.00
10, -62967.84, -61889.16, -124721.99, -31619.76, -18568.62, -59242.11, -82723.73, -44632.01, 0.00, 0.00, 0.00
11, -62195.63, -61415.13, -126896.30, -37831.29, -18242.98, -58538.90, -82343.00, -43951.29, 0.00, 0.00, 0.00
12, -61495.19, -60670.90, -133730.28, -51315.31, -17585.62, -57823.36, -81610.22, -43235.92, 0.00, 0.00, 0.00
13, -62114.51, -61029.38, -132505.39, -47178.43, -17811.57, -58373.23, -81880.70, -43769.27, 0.00, 0.00, 0.00
14, -62942.84, -61821.50, -125343.33, -32963.55, -18492.20, -59200.54, -82654.22, -44592.69, 0.00, 0.00, 0.00
15, -62376.41, -61555.70, -125593.42, -35372.84, -18348.61, -58713.49, -82485.60, -44125.83, 0.00, 0.00, 0.00
16, -61506.10, -60720.95, -132746.69, -49933.26, -17638.74, -57851.68, -81683.64, -43266.18, 0.00, 0.00, 0.00
17, -61934.20, -60895.40, -133195.58, -49194.20, -17722.38, -58219.59, -81774.95, -43616.45, -0.07, 0.78, 0.61
18, -62884.53, -61736.77, -126204.00, -34879.09, -18430.51, -59148.35, -82577.34, -44540.92, 0.00, 0.00, 0.00
19, -62579.34, -61703.98, -124515.46, -33350.84, -18470.90, -58902.25, -82615.95, -44317.85, 0.00, 0.00, 0.00
20, -61604.18, -60829.51, -131520.47, -48029.02, -17746.73, -57941.80, -81792.70, -43367.73, 0.00, 0.00, 0.00
21, -61799.31, -60790.57, -133645.48, -50783.92, -17633.42, -58074.66, -81674.88, -43487.80, 0.00, 0.00, 0.00
22, -62767.38, -61610.08, -127278.16, -37250.12, -18306.90, -59017.45, -82431.69, -44414.08, 0.00, 0.00, 0.00
23, -62726.64, -61806.62, -123761.31, -31893.97, -18540.44, -59041.82, -82688.27, -44446.87, 0.00, 0.00, 0.00
24, -61711.60, -60961.95, -130116.49, -45677.58, -17858.37, -58051.75, -81900.55, -43476.85, 0.00, 0.00, 0.00
25, -61667.25, -60721.24, -133778.22, -51788.63, -17583.51, -57964.15, -81603.13, -43374.86, 0.00, 0.00, 0.00
26, -62605.49, -61456.86, -128408.71, -39854.59, -18165.91, -58858.33, -82265.91, -44254.26, 0.00, 0.00, 0.00
27, -62852.30, -61868.06, -123369.22, -31137.97, -18575.10, -59153.09, -82724.98, -44555.61, -0.07, 0.78, 0.60
28, -61848.35, -61097.42, -128611.20, -43047.91, -17981.78, -58205.08, -82038.14, -43618.20, 0.00, 0.00, 0.00
29, -61575.68, -60667.82, -133646.44, -52225.34, -17559.69, -57891.62, -81570.59, -43294.90, 0.00, 0.00, 0.00
30, -62457.63, -61316.11, -129521.18, -42523.75, -18048.25, -58711.01, -82134.03, -44101.78, 0.00, 0.00, 0.00
31, -62922.19, -61881.88, -123336.95, -31118.70, -18571.37, -59210.08, -82721.08, -44601.90, 0.00, 0.00, 0.00
32, -62001.17, -61246.97, -127103.99, -40327.93, -18104.51, -58360.45, -82169.26, -43764.71, 0.00, 0.00, 0.00
33, -61494.74, -60645.31, -133229.27, -52038.46, -17551.57, -57827.16, -81548.23, -43222.50, 0.00, 0.00, 0.00
34, -62264.70, -61158.64, -130554.77, -45093.05, -17929.25, -58532.69, -81976.45, -43912.73, 0.00, 0.00, 0.00
35, -62948.70, -61872.04, -123664.98, -31844.95, -18553.87, -59230.76, -82687.66, -44612.96, 0.00, 0.00, 0.00
36, -62213.15, -61428.67, -125641.19, -37644.00, -18249.44, -58556.85, -82329.67, -43967.18, 0.00, 0.00, 0.00
37, -61506.66, -60686.79, -132493.78, -51194.50, -17586.82, -57830.04, -81591.82, -43244.41, -0.06, 0.78, 0.61
38, -62113.02, -61040.38, -131444.09, -47424.28, -17806.27, -58373.79, -81852.95, -43768.43, 0.00, 0.00, 0.00
39, -62940.16, -61824.39, -124327.71, -33260.85, -18480.13, -59204.18, -82618.73, -44592.02, 0.00, 0.00, 0.00
40, -62394.38, -61569.62, -124376.28, -35257.60, -18348.68, -58730.01, -82454.66, -44134.28, 0.00, 0.00, 0.00
41, -61508.15, -60736.08, -131469.53, -49737.57, -17648.98, -57856.84, -81652.91, -43260.53, 0.00, 0.00, 0.00
42, -61902.93, -60879.46, -132090.52, -49357.99, -17691.34, -58185.23, -81712.19, -43574.37, 0.00, 0.00, 0.00
43, -62849.35, -61708.05, -125214.52, -35203.48, -18373.33, -59102.30, -82494.41, -44489.49, 0.00, 0.00, 0.00
44, -62560.50, -61691.13, -123351.38, -33296.52, -18438.02, -58890.50, -82561.62, -44292.98, 0.00, 0.00, 0.00
45, -61582.34, -60828.24, -130252.55, -47799.43, -17730.48, -57938.13, -81757.02, -43345.48, 0.00, 0.00, 0.00
46, -61759.12, -60772.43, -132523.00, -50866.31, -17598.18, -58049.96, -81627.47, -43442.49, 0.00, 0.00, 0.00
47, -62718.75, -61571.14, -126296.90, -37569.86, -18242.71, -58974.27, -82367.77, -44353.41, -0.05, 0.78, 0.60
48, -62720.20, -61795.38, -122652.87, -31908.34, -18496.67, -59039.65, -82653.44, -44432.29, 0.00, 0.00, 0.00
49, -61722.57, -60971.58, -128862.81, -45412.46, -17838.17, -58080.16, -81899.70, -43487.13, 0.00, 0.00, 0.00
50, -61661.40, -60716.63, -132658.42, -51807.41, -17551.77, -57959.28, -81589.03, -43348.61, 0.00, 0.00, 0.00
51, -62600.46, -61448.96, -127415.58, -40140.29, -18126.01, -58832.07, -82245.63, -44214.30, 0.00, 0.00, 0.00
52, -62860.97, -61877.43, -122263.28, -31188.21, -18545.80, -59144.46, -82720.02, -44533.21, 0.00, 0.00, 0.00
53, -61851.90, -61117.31, -127330.82, -42754.84, -17965.21, -58204.32, -82048.98, -43598.66, 0.00, 0.00, 0.00
54, -61544.16, -60657.74, -132471.94, -52148.07, -17517.96, -57854.16, -81555.26, -43239.45, 0.00, 0.00, 0.00
55, -62419.90, -61286.67, -128495.93, -42753.57, -17991.79, -58662.64, -82106.91, -44040.76, 0.00, 0.00, 0.00
56, -62915.78, -61875.19, -122270.61, -31240.41, -18522.24, -59185.96, -82713.32, -44574.38, 0.00, 0.00, 0.00
57, -62025.30, -61260.39, -125865.51, -40073.95, -18068.75, -58356.25, -82184.05, -43764.74, -0.05, 0.77, 0.59
58, -61530.48, -60655.97, -132035.38, -51902.94, -17512.23, -57820.90, -81568.46, -43228.70, 0.00, 0.00, 0.00
59, -62283.34, -61153.54, -129530.57, -45305.84, -17865.06, -58507.16, -81977.39, -43902.85, 0.00, 0.00, 0.00
60, -62965.11, -61867.01, -122624.08, -32026.38, -18496.60, -59216.00, -82689.07, -44605.81, 0.00, 0.00, 0.00
61, -62233.11, -61438.06, -124399.81, -37421.04, -18212.07, -58558.21, -82348.38, -43962.66, 0.00, 0.00, 0.00
62, -61505.90, -60688.54, -131247.14, -50996.73, -17556.87, -57822.84, -81609.39, -43223.38, 0.00, 0.00, 0.00
63, -62078.19, -60999.38, -130373.01, -47586.08, -17746.39, -58325.11, -81828.41, -43709.75, 0.00, 0.00, 0.00
64, -62929.34, -61797.36, -123270.67, -33461.63, -18430.20, -59169.85, -82600.17, -44549.08, 0.00, 0.00, 0.00
65, -62424.96, -61582.96, -123122.21, -35059.45, -18327.16, -58738.41, -82474.16, -44138.84, 0.00, 0.00, 0.00
66, -61546.11, -60748.35, -130226.65, -49532.69, -17611.86, -57862.23, -81669.16, -43270.65, 0.00, 0.00, 0.00
67, -61927.56, -60876.58, -131030.10, -49525.05, -17636.87, -58173.81, -81711.49, -43571.80, -0.05, 0.78, 0.60
68, -62852.37, -61686.90, -124205.33, -35471.41, -18313.99, -59076.44, -82477.64, -44467.77, 0.00, 0.00, 0.00
69, -62589.73, -61705.70, -122126.40, -33147.30, -18411.71, -58896.49, -82568.73, -44294.25, 0.00, 0.00, 0.00
70, -61593.34, -60838.47, -128965.23, -47526.71, -17709.78, -57936.70, -81758.74, -43338.67, 0.00, 0.00, 0.00
71, -61757.20, -60772.31, -131383.13, -50950.98, -17577.19, -58037.66, -81618.48, -43428.59, 0.00, 0.00, 0.00
72, -62709.89, -61557.48, -125239.91, -37833.77, -18204.18, -58951.07, -82338.26, -44334.59, 0.00, 0.00, 0.00
73, -62742.39, -61800.38, -121425.94, -31825.55, -18471.53, -59037.01, -82638.69, -44436.79, 0.00, 0.00, 0.00
74, -61726.29, -60966.75, -127558.80, -45161.39, -17808.35, -58059.01, -81877.81, -43471.82, 0.00, 0.00, 0.00
75, -61645.42, -60691.40, -131519.66, -51897.11, -17508.43, -57930.00, -81551.39, -43326.51, 0.00, 0.00, 0.00
76, -62581.21, -61420.11, -126369.65, -40431.49, -18087.17, -58821.12, -82211.03, -44201.27, 0.00, 0.00, 0.00
77, -62867.79, -61863.75, -121082.62, -31187.14, -18518.55, -59149.91, -82690.43, -44543.05, -0.05, 0.78, 0.60
78, -61884.73, -61125.34, -126028.56, -42508.73, -17959.16, -58223.83, -82032.93, -43630.52, 0.00, 0.00, 0.00
79, -61573.00, -60669.70, -131275.36, -52172.25, -17517.49, -57865.02, -81540.37, -43260.95, 0.00, 0.00, 0.00
80, -62416.93, -61283.65, -127412.36, -43031.18, -17985.51, -58659.60, -82075.76, -44039.84, 0.00, 0.00, 0.00
81, -62933.48, -61888.00, -121036.84, -31244.27, -18538.76, -59211.27, -82703.20, -44593.20, 0.00, 0.00, 0.00
82, -62040.28, -61281.82, -124446.41, -39757.32, -18095.61, -58388.57, -82186.31, -43785.30, 0.00, 0.00, 0.00
83, -61483.54, -60636.46, -130746.32, -51850.84, -17509.71, -57805.45, -81536.45, -43196.58, 0.00, 0.00, 0.00
84, -62233.51, -61127.57, -128396.44, -45555.22, -17853.14, -58482.36, -81935.39, -43864.09, 0.00, 0.00, 0.00
85, -62960.26, -61864.06, -121398.47, -32080.65, -18508.29, -59225.04, -82672.62, -44607.55, 0.00, 0.00, 0.00
86, -62256.67, -61464.64, -122977.17, -37118.31, -18244.77, -58592.79, -82353.48, -43992.81, 0.00, 0.00, 0.00
87, -61490.70, -60682.95, -129914.80, -50891.50, -17565.59, -57823.98, -81589.14, -43221.81, -0.06, 0.79, 0.61
88, -62053.52, -60982.87, -129208.99, -47820.84, -17739.44, -58313.38, -81799.05, -43700.09, 0.00, 0.00, 0.00
89, -62922.46, -61787.17, -122089.00, -33598.18, -18418.53, -59166.00, -82570.49, -44554.02, 0.00, 0.00, 0.00
90, -62452.89, -61613.74, -121718.23, -34784.81, -18347.36, -58769.91, -82475.19, -44176.90, 0.00, 0.00, 0.00
91, -61524.63, -60755.10, -128839.12, -49366.78, -17631.70, -57872.73, -81664.13, -43273.00, 0.00, 0.00, 0.00
92, -61889.54, -60870.55, -129791.30, -49693.31, -17653.72, -58169.81, -81701.73, -43554.21, 0.00, 0.00, 0.00
93, -62837.55, -61690.86, -122960.88, -35608.47, -18338.46, -59091.13, -82480.68, -44473.02, 0.00, 0.00, 0.00
94, -62607.73, -61723.42, -120687.93, -32886.05, -18444.70, -58932.00, -82590.70, -44327.11, 0.00, 0.00, 0.00
95, -61613.57, -60855.82, -127525.05, -47300.13, -17732.58, -57958.88, -81774.63, -43361.98, 0.00, 0.00, 0.00
96, -61751.86, -60758.99, -130139.65, -51113.54, -17569.52, -58028.08, -81608.23, -43422.40, 0.00, 0.00, 0.00
97, -62723.71, -61554.54, -124030.30, -38037.73, -18215.42, -58959.34, -82347.16, -44343.65, -0.06, 0.79, 0.61
98, -62739.15, -61801.97, -120020.98, -31626.60, -18500.02, -59057.87, -82663.30, -44444.59, 0.00, 0.00, 0.00
99, -61714.48, -60978.39, -126067.97, -44869.49, -17846.86, -58076.63, -81905.28, -43476.13, 0.00, 0.00, 0.00
100, -61598.41, -60676.54, -130191.60, -51971.54, -17517.53, -57909.66, -81551.50, -43296.49, 0.00, 0.00, 0.00
101, -62530.81, -61391.41, -125144.35, -40655.41, -18080.71, -58794.83, -82198.38, -44169.64, 0.00, 0.00, 0.00
102, -62851.56, -61859.93, -119680.06, -31030.39, -18534.27, -59154.76, -82707.40, -44541.55, 0.00, 0.00, 0.00
103, -61861.29, -61122.83, -124519.95, -42190.46, -17972.72, -58225.33, -82056.56, -43628.84, 0.00, 0.00, 0.00
104, -61516.22, -60632.48, -129945.41, -52221.59, -17499.31, -57839.45, -81538.18, -43237.14, 0.00, 0.00, 0.00
105, -62369.66, -61237.12, -126219.98, -43300.51, -17953.46, -58628.91, -82062.15, -44015.41, 0.00, 0.00, 0.00
106, -62919.62, -61864.62, -119728.88, -31213.03, -18523.58, -59205.25, -82703.33, -44595.51, 0.00, 0.00, 0.00
107, -62048.75, -61285.89, -122971.16, -39447.79, -18110.61, -58410.89, -82221.47, -43816.86, 0.00, 0.00, 0.00
108, -61459.67, -60621.08, -129388.30, -51835.37, -17510.51, -57805.27, -81556.08, -43202.57, -0.08, 0.79, 0.61
109, -62167.73, -61077.84, -127206.99, -45832.86, -17828.18, -58446.10, -81919.12, -43826.67, 0.00, 0.00, 0.00
110, -62919.22, -61832.95, -120127.79, -32128.08, -18495.42, -59208.74, -82671.57, -44586.01, 0.00, 0.00, 0.00
111, -62225.85, -61448.90, -121512.48, -36803.46, -18246.11, -58588.48, -82378.07, -43985.66, 0.00, 0.00, 0.00
112, -61447.78, -60655.97, -128543.02, -50801.29, -17552.76, -57796.82, -81599.98, -43198.97, 0.00, 0.00, 0.00
113, -62011.74, -60952.45, -127987.90, -48042.14, -17727.77, -58289.32, -81807.31, -43682.13, 0.00, 0.00, 0.00
114, -62901.29, -61780.36, -120803.42, -33669.57, -18427.92, -59169.34, -82605.12, -44555.32, 0.00, 0.00, 0.00
115, -62432.64, -61610.82, -120238.59, -34458.14, -18357.08, -58775.96, -82519.58, -44173.73, 0.00, 0.00, 0.00
116, -61531.91, -60770.50, -127395.23, -49160.47, -17631.86, -57886.97, -81720.30, -43289.67, 0.00, 0.00, 0.00
117, -61853.85, -60851.66, -128536.97, -49878.30, -17622.67, -58153.31, -81722.98, -43537.48, 0.00, 0.00, 0.00
118, -62777.38, -61650.69, -121724.20, -35772.42, -18332.88, -59058.38, -82482.88, -44422.44, -0.07, 0.78, 0.62
119, -62595.84, -61727.25, -119223.22, -32605.16, -18489.00, -58930.04, -82619.96, -44311.21, 0.00, 0.00, 0.00
120, -61591.14, -60855.35, -126057.77, -47052.48, -17770.06, -57939.72, -81795.36, -43337.75, 0.00, 0.00, 0.00
121, -61690.72, -60734.18, -128854.38, -51238.40, -17598.06, -57981.52, -81599.11, -43365.98, 0.00, 0.00, 0.00
122, -62654.08, -61530.06, -122786.69, -38224.97, -18256.23, -58916.96, -82327.91, -44285.18, 0.00, 0.00, 0.00
123, -62743.49, -61826.35, -118558.81, -31386.34, -18556.64, -59053.29, -82672.38, -44435.73, 0.00, 0.00, 0.00
124, -61712.25, -61003.63, -124553.28, -44546.55, -17898.47, -58060.35, -81905.91, -43459.59, 0.00, 0.00, 0.00
125, -61572.91, -60670.93, -128851.39, -52009.91, -17560.96, -57866.86, -81522.84, -43258.87, 0.00, 0.00, 0.00
126, -62508.02, -61384.62, -123909.48, -40875.59, -18112.60, -58747.78, -82157.32, -44131.95, 0.00, 0.00, 0.00
127, -62864.55, -61880.69, -118280.64, -30895.23, -18575.21, -59142.69, -82682.56, -44537.14, 0.00, 0.00, 0.00
128, -61892.09, -61168.50, -122989.06, -41826.97, -18031.98, -58226.61, -82045.74, -43635.23, -0.05, 0.78, 0.61
129, -61527.89, -60661.87, -128560.73, -52175.79, -17547.08, -57816.52, -81497.38, -43219.46, 0.00, 0.00, 0.00
130, -62373.48, -61261.10, -124963.05, -43508.27, -17991.63, -58602.83, -82008.08, -43994.98, 0.00, 0.00, 0.00
131, -62940.05, -61905.77, -118344.81, -31155.29, -18570.52, -59201.59, -82663.16, -44597.68, 0.00, 0.00, 0.00
132, -62069.92, -61340.02, -121408.68, -39053.82, -18160.81, -58414.92, -82186.83, -43821.84, 0.00, 0.00, 0.00
133, -61451.96, -60653.89, -127946.09, -51698.60, -17536.17, -57780.09, -81498.99, -43178.47, 0.00, 0.00, 0.00
134, -62140.89, -61087.52, -125947.67, -46029.64, -17824.15, -58403.83, -81836.93, -43781.84, 0.00, 0.00, 0.00
135, -62909.63, -61855.59, -118831.73, -32205.49, -18492.07, -59183.30, -82590.27, -44554.76, 0.00, 0.00, 0.00
136, -62253.12, -61495.57, -120008.05, -36462.15, -18275.26, -58595.59, -82321.72, -43992.79, 0.00, 0.00, 0.00
137, -61463.70, -60708.61, -127067.14, -50591.00, -17592.68, -57796.34, -81550.88, -43199.46, 0.00, 0.00, 0.00
138, -61976.60, -60966.10, -126712.05, -48231.29, -17742.66, -58252.42, -81728.62, -43632.77, -0.04, 0.78, 0.61
139, -62866.00, -61786.72, -119568.91, -33873.78, -18439.61, -59131.92, -82512.06, -44502.75, 0.00, 0.00, 0.00
140, -62446.70, -61652.64, -118757.27, -34173.38, -18402.93, -58774.29, -82464.95, -44166.64, 0.00, 0.00, 0.00
141, -61505.50, -60781.68, -125888.48, -48882.41, -17671.11, -57844.08, -81644.33, -43244.39, 0.00, 0.00, 0.00
142, -61829.84, -60860.07, -127227.49, -50008.38, -17649.63, -58097.08, -81637.48, -43487.93, 0.00, 0.00, 0.00
143, -62782.74, -61671.77, -120524.49, -36034.12, -18321.70, -59020.70, -82408.82, -44408.64, 0.00, 0.00, 0.00
144, -62615.23, -61756.77, -117841.05, -32438.15, -18471.26, -58922.84, -82572.39, -44330.46, 0.00, 0.00, 0.00
145, -61607.20, -60888.34, -124563.63, -46761.50, -17768.16, -57950.72, -81774.19, -43371.82, 0.00, 0.00, 0.00
146, -61687.68, -60747.55, -127515.60, -51310.62, -17572.31, -57976.78, -81575.46, -43387.35, 0.00, 0.00, 0.00
147, -62645.57, -61528.18, -121589.41, -38486.95, -18203.57, -58905.02, -82295.14, -44299.30, 0.00, 0.00, 0.00
148, -62760.90, -61840.59, -117223.32, -31299.95, -18531.07, -59068.64, -82656.13, -44477.09, -0.05, 0.77, 0.61
149, -61733.71, -61024.93, -123074.60, -44258.91, -17882.56, -58084.71, -81915.23, -43508.83, 0.00, 0.00, 0.00
150, -61579.39, -60690.84, -127501.92, -52044.02, -17527.50, -57876.87, -81525.66, -43291.95, 0.00, 0.00, 0.00
151, -62496.79, -61388.15, -122697.48, -41134.56, -18074.98, -58749.41, -82149.68, -44147.20, 0.00, 0.00, 0.00
152, -62869.24, -61895.33, -116967.03, -30880.81, -18547.61, -59160.59, -82692.20, -44566.85, 0.00, 0.00, 0.00
153, -61892.22, -61182.22, -121500.39, -41532.76, -18002.21, -58246.90, -82069.59, -43666.07, 0.00, 0.00, 0.00
154, -61473.11, -60644.35, -127178.63, -52164.19, -17501.30, -57803.04, -81507.04, -43205.65, 0.00, 0.00, 0.00
155, -62297.02, -61228.96, -123769.49, -43798.04, -17940.11, -58569.75, -82002.94, -43956.27, 0.00, 0.00, 0.00
156, -62910.79, -61891.22, -117117.86, -31253.97, -18534.22, -59197.90, -82672.44, -44589.18, 0.00, 0.00, 0.00
157, -62087.78, -61353.05, -119975.31, -38791.36, -18157.15, -58439.84, -82229.61, -43853.16, 0.00, 0.00, 0.00
158, -61458.78, -60661.92, -126542.23, -51621.55, -17533.96, -57789.70, -81539.92, -43198.81, -0.07, 0.77, 0.60
159, -62125.93, -61078.33, -124699.35, -46273.16, -17814.56, -58394.82, -81858.73, -43782.46, 0.00, 0.00, 0.00
160, -62886.68, -61832.32, -117596.05, -32349.34, -18464.42, -59167.68, -82598.34, -44549.39, 0.00, 0.00, 0.00
161, -62259.46, -61495.05, -118567.26, -36222.59, -18262.63, -58605.20, -82355.49, -44011.66, 0.00, 0.00, 0.00
162, -61445.23, -60694.57, -125644.11, -50484.36, -17574.64, -57791.64, -81572.51, -43198.70, 0.00, 0.00, 0.00
163, -61938.25, -60936.80, -125466.35, -48467.50, -17706.67, -58224.93, -81721.88, -43612.95, 0.00, 0.00, 0.00
164, -62833.90, -61749.46, -118376.65, -34085.09, -18387.62, -59104.36, -82497.78, -44488.80, 0.00, 0.00, 0.00
165, -62454.46, -61649.48, -117387.54, -34013.07, -18379.01, -58785.80, -82469.44, -44192.32, 0.00, 0.00, 0.00
166, -61523.20, -60798.02, -124489.02, -48757.13, -17666.30, -57861.33, -81653.60, -43282.12, 0.00, 0.00, 0.00
167, -61802.30, -60833.80, -125989.91, -50216.48, -17622.25, -58082.93, -81612.90, -43487.06, 0.00, 0.00, 0.00
168, -62760.28, -61657.93, -119328.56, -36262.80, -18300.13, -59015.38, -82382.54, -44409.36, -0.06, 0.79, 0.59
169, -62612.31, -61763.59, -116474.60, -32304.13, -18460.46, -58933.03, -82551.49, -44341.37, 0.00, 0.00, 0.00
170, -61596.06, -60896.01, -123133.45, -46552.11, -17755.22, -57947.16, -81747.14, -43366.43, 0.00, 0.00, 0.00
171, -61671.19, -60750.52, -126241.95, -51452.64, -17556.09, -57956.64, -81535.83, -43367.03, 0.00, 0.00, 0.00
172, -62630.21, -61531.49, -120417.94, -38785.26, -18180.15, -58883.90, -82246.75, -44279.83, 0.00, 0.00, 0.00
173, -62766.18, -61863.75, -115883.48, -31231.20, -18522.44, -59079.55, -82630.55, -44482.38, 0.00, 0.00, 0.00
174, -61741.46, -61045.52, -121604.08, -43977.55, -17881.30, -58103.63, -81893.13, -43518.35, 0.00, 0.00, 0.00
175, -61555.61, -60680.63, -126188.47, -52108.04, -17500.10, -57860.75, -81472.69, -43267.88, 0.00, 0.00, 0.00
176, -62470.75, -61374.16, -121541.85, -41459.71, -18030.86, -58717.56, -82081.91, -44117.07, 0.00, 0.00, 0.00
177, -62870.96, -61898.48, -115710.88, -30926.68, -18527.81, -59158.41, -82635.60, -44567.93, 0.00, 0.00, 0.00
178, -61919.85, -61208.71, -120068.18, -41247.26, -18012.82, -58271.49, -82032.55, -43699.92, -0.07, 0.80, 0.59
179, -61495.50, -60659.77, -125849.01, -52132.58, -17502.62, -57825.44, -81470.41, -43242.04, 0.00, 0.00, 0.00
180, -62304.34, -61229.54, -122614.80, -44097.06, -17921.81, -58581.26, -81947.04, -43978.64, 0.00, 0.00, 0.00
181, -62917.52, -61900.20, -115895.71, -31374.29, -18527.92, -59217.55, -82625.95, -44608.47, 0.00, 0.00, 0.00
182, -62080.38, -61367.90, -118557.49, -38516.43, -18154.42, -58459.36, -82184.81, -43859.22, 0.00, 0.00, 0.00
183, -61443.07, -60664.13, -125201.80, -51518.45, -17533.45, -57796.04, -81483.69, -43198.68, 0.00, 0.00, 0.00
184, -62119.39, -61082.67, -123530.40, -46525.36, -17810.54, -58395.27, -81804.37, -43787.63, 0.00, 0.00, 0.00
185, -62896.46, -61848.30, -116398.02, -32514.54, -18469.63, -59177.25, -82553.70, -44566.11, 0.00, 0.00, 0.00
186, -62275.69, -61516.94, -117160.69, -35962.97, -18279.05, -58627.02, -82319.55, -44035.64, 0.00, 0.00, 0.00
187, -61462.67, -60717.28, -124253.12, -50293.68, -17586.11, -57809.79, -81543.12, -43220.23, 0.00, 0.00, 0.00
188, -61922.18, -60924.41, -124276.01, -48660.30, -17678.06, -58205.44, -81666.32, -43596.94, -0.06, 0.79, 0.59
189, -62828.92, -61742.71, -117226.27, -34317.68, -18365.47, -59099.11, -82448.79, -44480.28, 0.00, 0.00, 0.00
190, -62475.54, -61667.48, -116024.30, -33823.08, -18379.88, -58813.16, -82455.02, -44211.53, 0.00, 0.00, 0.00
191, -61534.77, -60812.30, -123097.36, -48537.77, -17664.11, -57883.30, -81639.95, -43292.24, 0.00, 0.00, 0.00
192, -61789.12, -60828.30, -124783.05, -50374.48, -17596.86, -58075.64, -81580.60, -43470.59, 0.00, 0.00, 0.00
193, -62747.07, -61643.74, -118208.70, -36561.30, -18264.57, -59004.04, -82343.66, -44391.90, 0.00, 0.00, 0.00
194, -62641.19, -61780.44, -115164.79, -32202.96, -18444.46, -58956.50, -82541.30, -44363.05, 0.00, 0.00, 0.00
195, -61622.55, -60921.60, -121749.52, -46311.41, -17754.41, -57975.35, -81744.04, -43390.16, 0.00, 0.00, 0.00
196, -61647.29, -60740.17, -125033.62, -51576.61, -17533.76, -57955.07, -81499.51, -43350.54, 0.00, 0.00, 0.00
197, -62600.19, -61497.11, -119342.09, -39128.56, -18141.05, -58864.66, -82188.59, -44246.48, 0.00, 0.00, 0.00
198, -62776.44, -61856.57, -114642.32, -31217.14, -18504.72, -59091.17, -82598.61, -44482.63, -0.06, 0.78, 0.60
199, -61749.53, -61061.25, -120225.07, -43716.70, -17883.61, -58122.45, -81883.84, -43520.63, 0.00, 0.00, 0.00
200, -61531.00, -60675.91, -124948.17, -52156.83, -17490.31, -57858.98, -81455.61, -43249.44, 0.00, 0.00, 0.00
201, -62447.31, -61357.48, -120445.32, -41787.68, -18015.53, -58718.01, -82058.86, -44099.30, 0.00, 0.00, 0.00
202, -62862.85, -61894.06, -114482.88, -30979.18, -18515.09, -59173.22, -82622.64, -44558.40, 0.00, 0.00, 0.00
203, -61926.89, -61224.53, -118692.77, -40995.64, -18013.45, -58292.86, -82035.23, -43696.32, 0.00, 0.00, 0.00
204, -61491.61, -60671.33, -124594.01, -52142.19, -17492.56, -57816.34, -81458.02, -43219.69, 0.00, 0.00, 0.00
205, -62291.09, -61224.67, -121518.56, -44426.64, -17893.73, -58555.58, -81922.91, -43944.22, 0.00, 0.00, 0.00
206, -62911.69, -61905.41, -114718.36, -31514.86, -18500.67, -59211.49, -82606.88, -44592.76, 0.00, 0.00, 0.00
207, -62105.48, -61395.61, -117191.13, -38281.70, -18152.01, -58477.04, -82192.66, -43871.87, 0.00, 0.00, 0.00
208, -61441.75, -60675.64, -123942.92, -51488.40, -17508.99, -57788.29, -81477.60, -43179.05, -0.05, 0.79, 0.59
209, -62095.65, -61072.27, -122450.90, -46853.64, -17777.13, -58383.02, -81784.72, -43756.38, 0.00, 0.00, 0.00
210, -62894.68, -61846.43, -115281.94, -32748.23, -18438.98, -59182.75, -82537.14, -44557.96, 0.00, 0.00, 0.00
211, -62287.29, -61548.70, -115845.11, -35775.75, -18268.06, -58656.50, -82329.48, -44047.26, 0.00, 0.00, 0.00
212, -61454.75, -60739.79, -122981.02, -50195.58, -17582.60, -57830.73, -81553.71, -43220.58, 0.00, 0.00, 0.00
213, -61923.29, -60943.88, -123153.28, -48919.29, -17678.71, -58224.44, -81677.23, -43603.27, 0.00, 0.00, 0.00
214, -62831.82, -61760.24, -116102.71, -34565.54, -18360.19, -59111.64, -82457.30, -44489.16, 0.00, 0.00, 0.00
215, -62489.04, -61696.27, -114684.83, -33622.43, -18385.54, -58842.75, -82479.92, -44236.49, 0.00, 0.00, 0.00
216, -61516.47, -60824.30, -121785.30, -48370.63, -17654.84, -57885.23, -81648.77, -43285.76, 0.00, 0.00, 0.00
217, -61767.93, -60835.32, -123663.10, -50590.91, -17583.94, -58070.23, -81577.74, -43457.27, 0.00, 0.00, 0.00
218, -62742.42, -61656.88, -117134.73, -36856.77, -18252.52, -59009.61, -82350.02, -44389.64, -0.05, 0.78, 0.60
219, -62677.64, -61819.36, -113859.88, -32047.60, -18466.50, -58997.25, -82586.54, -44395.50, 0.00, 0.00, 0.00
220, -61661.40, -60974.37, -120389.87, -46083.20, -17783.74, -58013.62, -81805.28, -43423.16, 0.00, 0.00, 0.00
221, -61648.50, -60751.48, -123863.80, -51717.49, -17530.76, -57950.18, -81532.55, -43348.82, 0.00, 0.00, 0.00
222, -62573.24, -61487.16, -118274.97, -39440.57, -18119.20, -58843.80, -82210.27, -44225.32, 0.00, 0.00, 0.00
223, -62781.73, -61872.82, -113415.97, -31159.16, -18496.40, -59096.67, -82641.91, -44489.67, 0.00, 0.00, 0.00
224, -61783.89, -61099.30, -118904.39, -43470.05, -17897.06, -58147.50, -81952.45, -43557.87, 0.00, 0.00, 0.00
225, -61552.95, -60694.26, -123800.77, -52245.79, -17489.41, -57860.57, -81508.00, -43268.50, 0.00, 0.00, 0.00
226, -62445.83, -61363.32, -119433.21, -42111.18, -17995.90, -58694.29, -82094.94, -44093.17, 0.00, 0.00, 0.00
227, -62889.85, -61915.47, -113329.13, -30987.79, -18510.73, -59176.33, -82682.16, -44579.08, 0.00, 0.00, 0.00
228, -61975.84, -61269.55, -117372.42, -40686.50, -18031.64, -58312.75, -82122.32, -43734.94, -0.05, 0.78, 0.61
229, -61485.69, -60667.71, -123425.45, -52122.86, -17481.59, -57797.74, -81510.75, -43212.43, 0.00, 0.00, 0.00
230, -62256.45, -61191.96, -120528.42, -44717.55, -17861.32, -58517.87, -81948.98, -43911.21, 0.00, 0.00, 0.00
231, -62932.25, -61904.96, -113634.30, -31589.74, -18489.85, -59209.97, -82660.08, -44601.86, 0.00, 0.00, 0.00
232, -62145.69, -61417.61, -115921.80, -37979.84, -18157.73, -58496.01, -82265.80, -43905.84, 0.00, 0.00, 0.00
233, -61453.73, -60687.24, -122767.55, -51398.57, -17507.88, -57788.96, -81537.64, -43198.66, 0.00, 0.00, 0.00
234, -62075.55, -61054.82, -121472.70, -47104.78, -17742.86, -58344.18, -81812.99, -43739.37, 0.00, 0.00, 0.00
235, -62906.73, -61851.93, -114270.16, -32888.22, -18427.74, -59168.46, -82589.18, -44561.93, 0.00, 0.00, 0.00
236, -62335.86, -61583.88, -114597.08, -35457.80, -18285.38, -58677.35, -82410.97, -44082.76, 0.00, 0.00, 0.00
237, -61474.67, -60756.73, -121789.33, -49995.64, -17577.95, -57817.64, -81609.16, -43221.66, 0.00, 0.00, 0.00
238, -61917.46, -60943.23, -122171.44, -49111.07, -17652.58, -58187.54, -81710.30, -43577.92, -0.05, 0.78, 0.61
239, -62855.05, -61779.57, -115132.20, -34762.13, -18347.79, -59103.17, -82504.98, -44489.31, 0.00, 0.00, 0.00
240, -62516.17, -61717.70, -113503.38, -33380.68, -18382.50, -58841.34, -82522.05, -44242.13, 0.00, 0.00, 0.00
241, -61539.31, -60846.59, -120572.03, -48097.44, -17667.91, -57886.90, -81698.06, -43293.02, 0.00, 0.00, 0.00
242, -61759.07, -60824.50, -122641.05, -50716.71, -17576.43, -58046.34, -81605.57, -43438.40, 0.00, 0.00, 0.00
243, -62740.16, -61647.81, -116196.77, -37106.71, -18248.84, -58993.72, -82372.97, -44377.73, 0.00, 0.00, 0.00
244, -62709.54, -61849.64, -112725.14, -31885.90, -18485.03, -59018.55, -82631.31, -44421.16, 0.00, 0.00, 0.00
245, -61668.10, -60994.80, -119168.39, -45761.71, -17799.41, -58021.91, -81839.32, -43431.96, 0.00, 0.00, 0.00
246, -61626.89, -60761.20, -122813.87, -51768.70, -17535.88, -57942.09, -81550.85, -43325.88, 0.00, 0.00, 0.00
247, -62594.07, -61523.11, -117322.34, -39693.25, -18139.29, -58859.36, -82239.64, -44230.95, 0.00, 0.00, 0.00
248, -62825.59, -61917.86, -112287.29, -31064.48, -18531.70, -59131.25, -82685.09, -44520.27, -0.04, 0.79, 0.61
249, -61823.52, -61143.69, -117655.91, -43140.36, -17925.32, -58168.82, -81982.20, -43581.72, 0.00, 0.00, 0.00
250, -61551.89, -60714.73, -122688.68, -52239.98, -17509.71, -57864.80, -81519.91, -43262.63, 0.00, 0.00, 0.00
251, -62426.61, -61359.45, -118479.98, -42403.45, -18002.68, -58688.62, -82090.83, -44073.10, 0.00, 0.00, 0.00
252, -62911.00, -61942.92, -112275.52, -31037.88, -18535.76, -59200.58, -82697.79, -44594.10, 0.00, 0.00, 0.00
253, -61990.04, -61305.74, -116137.13, -40401.25, -18068.97, -58347.50, -82142.13, -43756.54, 0.00, 0.00, 0.00
254, -61502.99, -60714.73, -122283.06, -52083.77, -17517.58, -57823.02, -81527.63, -43231.42, 0.00, 0.00, 0.00
255, -62264.56, -61225.05, -119537.10, -44995.11, -17884.05, -58528.09, -81953.27, -43918.74, 0.00, 0.00, 0.00
0, -62950.73, -61936.37, -112583.48, -31709.03, -18516.72, -59232.95, -82675.34, -44619.71, 0.00, 0.00, 0.00
1, -62186.80, -61467.56, -114664.60, -37703.35, -18197.25, -58529.54, -82303.08, -43937.14, 0.00, 0.00, 0.00
2, -61469.13, -60725.53, -121556.07, -51280.49, -17546.57, -57810.04, -81568.02, -43211.42, 0.00, 0.00, 0.00
3, -62075.53, -61073.50, -120435.58, -47350.71, -17760.34, -58352.00, -81823.32, -43740.20, -0.05, 0.78, 0.61
4, -62919.46, -61867.08, -113252.77, -33107.22, -18438.74, -59188.45, -82594.38, -44576.06, 0.00, 0.00, 0.00
5, -62389.50, -61630.82, -113358.03, -35249.41, -18320.00, -58726.75, -82445.66, -44137.16, 0.00, 0.00, 0.00
6, -61487.81, -60777.77, -120551.16, -49856.86, -17594.76, -57840.30, -81629.20, -43250.87, 0.00, 0.00, 0.00
7, -61888.22, -60929.16, -121142.59, -49364.47, -17636.40, -58182.59, -81701.08, -43571.80, 0.00, 0.00, 0.00
8, -62840.45, -61776.06, -114156.08, -35058.62, -18333.71, -59109.16, -82502.45, -44492.69, 0.00, 0.00, 0.00
9, -62555.64, -61768.98, -112317.06, -33240.44, -18405.34, -58895.19, -82572.55, -44296.62, 0.00, 0.00, 0.00
10, -61564.39, -60883.67, -119309.23, -47896.23, -17705.02, -57936.64, -81754.68, -43341.62, 0.00, 0.00, 0.00
11, -61744.88, -60834.76, -121551.82, -50891.14, -17581.70, -58053.69, -81625.88, -43448.14, 0.00, 0.00, 0.00
12, -62718.05, -61640.43, -115220.83, -37427.21, -18232.52, -58988.64, -82373.46, -44376.19, 0.00, 0.00, 0.00
13, -62704.33, -61861.71, -111582.52, -31813.55, -18486.46, -59040.01, -82653.22, -44437.70, -0.05, 0.78, 0.60
14, -61679.41, -61016.89, -117910.08, -45529.47, -17818.77, -58059.17, -81880.92, -43464.13, 0.00, 0.00, 0.00
15, -61628.83, -60769.52, -121723.77, -51905.04, -17530.14, -57950.56, -81570.54, -43346.67, 0.00, 0.00, 0.00
16, -62575.56, -61504.87, -116390.76, -40057.14, -18106.01, -58850.96, -82233.23, -44232.92, 0.00, 0.00, 0.00
17, -62845.64, -61948.55, -111208.17, -31087.30, -18524.32, -59165.38, -82705.20, -44557.57, 0.00, 0.00, 0.00
18, -61854.38, -61183.70, -116404.22, -42889.09, -17941.65, -58221.73, -82029.05, -43635.27, 0.00, 0.00, 0.00
19, -61571.70, -60744.62, -121558.82, -52283.52, -17510.33, -57896.70, -81551.79, -43299.11, 0.00, 0.00, 0.00
20, -62443.62, -61385.91, -117493.17, -42710.94, -17995.86, -58716.73, -82108.10, -44099.66, 0.00, 0.00, 0.00
21, -62935.04, -61968.73, -111186.76, -31089.53, -18535.79, -59242.40, -82727.45, -44629.97, 0.00, 0.00, 0.00
22, -62024.68, -61355.63, -114861.12, -40126.66, -18080.15, -58405.02, -82198.72, -43806.76, 0.00, 0.00, 0.00
23, -61499.08, -60738.45, -121103.05, -52048.70, -17520.35, -57850.67, -81551.56, -43250.42, -0.05, 0.79, 0.61
24, -62264.16, -61237.61, -118526.09, -45281.26, -17880.79, -58544.02, -81958.48, -43935.75, 0.00, 0.00, 0.00
25, -62961.44, -61947.07, -111541.98, -31860.85, -18511.60, -59258.50, -82676.13, -44648.99, 0.00, 0.00, 0.00
26, -62208.43, -61506.05, -113410.76, -37441.50, -18215.75, -58586.20, -82320.63, -43986.58, 0.00, 0.00, 0.00
27, -61498.95, -60779.20, -120338.84, -51149.21, -17560.18, -57857.40, -81582.21, -43254.65, 0.00, 0.00, 0.00
28, -62089.66, -61095.09, -119409.14, -47611.18, -17762.19, -58380.14, -81824.15, -43761.54, 0.00, 0.00, 0.00
29, -62926.73, -61893.14, -112240.33, -33326.00, -18439.54, -59216.61, -82592.76, -44591.71, 0.00, 0.00, 0.00
30, -62410.41, -61675.30, -112141.42, -35043.33, -18342.78, -58777.98, -82464.21, -44169.04, 0.00, 0.00, 0.00
31, -61534.89, -60851.01, -119317.54, -49678.47, -17638.68, -57906.86, -81672.76, -43302.17, 0.00, 0.00, 0.00
32, -61909.46, -60967.33, -120083.36, -49571.96, -17659.69, -58209.17, -81719.12, -43590.41, 0.00, 0.00, 0.00
33, -62848.14, -61779.77, -113185.16, -35333.93, -18335.45, -59112.56, -82496.62, -44495.41, -0.05, 0.77, 0.61
34, -62599.72, -61798.19, -111126.09, -33060.80, -18433.86, -58929.16, -82600.06, -44332.43, 0.00, 0.00, 0.00
35, -61609.50, -60936.73, -118060.70, -47634.07, -17725.85, -57969.36, -81796.30, -43379.79, 0.00, 0.00, 0.00
36, -61749.89, -60860.47, -120488.88, -51002.97, -17572.29, -58059.93, -81643.50, -43456.73, 0.00, 0.00, 0.00
37, -62712.09, -61643.25, -114258.56, -37683.00, -18215.15, -58991.88, -82382.36, -44380.15, 0.00, 0.00, 0.00
38, -62746.30, -61889.05, -110429.37, -31665.85, -18480.27, -59081.05, -82690.95, -44484.04, 0.00, 0.00, 0.00
39, -61721.37, -61061.19, -116642.82, -45193.04, -17824.40, -58100.77, -81925.89, -43513.95, 0.00, 0.00, 0.00
40, -61627.00, -60771.42, -120595.75, -51895.23, -17552.96, -57962.41, -81589.63, -43358.74, 0.00, 0.00, 0.00
41, -62576.59, -61506.84, -115392.60, -40283.96, -18144.94, -58855.16, -82246.95, -44241.66, 0.00, 0.00, 0.00
42, -62875.43, -61970.68, -110103.55, -31019.95, -18570.10, -59189.14, -82730.55, -44588.96, 0.00, 0.00, 0.00
43, -61894.17, -61223.04, -115121.07, -42508.30, -18017.72, -58266.37, -82067.83, -43679.13, -0.06, 0.78, 0.60
44, -61576.62, -60764.96, -120393.51, -52180.70, -17584.21, -57910.20, -81559.37, -43310.55, 0.00, 0.00, 0.00
45, -62413.38, -61371.72, -116524.04, -42949.39, -18039.40, -58694.05, -82066.39, -44075.47, 0.00, 0.00, 0.00
46, -62943.63, -61996.90, -110175.50, -31159.61, -18591.46, -59244.17, -82688.73, -44630.22, 0.00, 0.00, 0.00
47, -62082.17, -61416.42, -113638.59, -39799.16, -18172.01, -58438.77, -82182.06, -43844.73, 0.00, 0.00, 0.00
48, -61541.52, -60773.39, -119929.95, -51885.13, -17598.02, -57869.25, -81525.51, -43266.11, 0.00, 0.00, 0.00
49, -62278.80, -61266.58, -117550.81, -45496.17, -17930.70, -58536.78, -81906.53, -43915.16, 0.00, 0.00, 0.00
50, -63000.27, -61998.75, -110578.44, -32031.43, -18565.13, -59262.39, -82622.04, -44640.16, 0.00, 0.00, 0.00
51, -62277.86, -61587.41, -112205.87, -37168.80, -18304.87, -58627.19, -82295.21, -44014.07, 0.00, 0.00, 0.00
52, -61534.77, -60829.31, -119122.79, -50924.78, -17640.98, -57878.14, -81542.96, -43262.05, 0.00, 0.00, 0.00
53, -62096.63, -61132.31, -118374.86, -47770.17, -17820.84, -58377.41, -81753.54, -43740.64, -0.04, 0.80, 0.60
54, -62927.51, -61923.29, -111273.48, -33569.08, -18494.03, -59217.14, -82516.49, -44570.14, 0.00, 0.00, 0.00
55, -62450.05, -61743.77, -110955.51, -34839.68, -18412.49, -58811.17, -82414.43, -44187.14, 0.00, 0.00, 0.00
56, -61556.19, -60885.90, -118068.44, -49401.06, -17700.73, -57921.21, -81609.13, -43308.05, 0.00, 0.00, 0.00
57, -61906.11, -61005.39, -119008.35, -49671.43, -17712.06, -58211.50, -81640.77, -43583.57, 0.00, 0.00, 0.00
58, -62828.20, -61803.15, -112227.86, -35630.20, -18381.89, -59119.29, -82414.59, -44479.23, 0.00, 0.00, 0.00
59, -62614.88, -61844.05, -109996.95, -32969.56, -18498.73, -58973.82, -82536.07, -44350.69, 0.00, 0.00, 0.00
60, -61636.07, -60994.15, -116815.22, -47354.43, -17799.83, -58015.54, -81743.61, -43406.28, 0.00, 0.00, 0.00
61, -61777.67, -60906.63, -119376.48, -51063.50, -17646.19, -58090.82, -81595.40, -43474.50, 0.00, 0.00, 0.00
62, -62734.21, -61694.07, -113300.74, -38021.81, -18278.61, -59008.09, -82329.34, -44385.36, 0.00, 0.00, 0.00
63, -62773.11, -61950.36, -109351.44, -31696.45, -18559.37, -59109.90, -82647.70, -44497.23, -0.04, 0.79, 0.60
64, -61748.99, -61120.48, -115399.23, -44936.41, -17907.61, -58133.44, -81897.28, -43532.17, 0.00, 0.00, 0.00
65, -61642.20, -60819.05, -119474.59, -51942.59, -17584.70, -57975.89, -81553.20, -43367.84, 0.00, 0.00, 0.00
66, -62558.33, -61519.75, -114476.89, -40673.47, -18133.90, -58841.23, -82194.31, -44223.30, 0.00, 0.00, 0.00
67, -62883.21, -61987.26, -109090.93, -31148.34, -18588.18, -59203.76, -82707.02, -44595.62, 0.00, 0.00, 0.00
68, -61911.22, -61268.88, -113892.10, -42272.33, -18048.50, -58302.11, -82084.90, -43705.57, 0.00, 0.00, 0.00
69, -61544.03, -60773.39, -119252.12, -52196.35, -17572.87, -57907.98, -81567.01, -43299.33, 0.00, 0.00, 0.00
70, -62376.99, -61366.87, -115569.49, -43299.33, -18020.85, -58681.73, -82084.25, -44055.60, 0.00, 0.00, 0.00
71, -62929.64, -61996.52, -109165.36, -31319.31, -18582.23, -59260.42, -82728.85, -44639.07, 0.00, 0.00, 0.00
72, -62078.93, -61430.21, -112411.14, -39562.21, -18166.63, -58473.77, -82245.48, -43874.62, 0.00, 0.00, 0.00
73, -61511.71, -60762.21, -118739.77, -51829.76, -17578.71, -57881.61, -81595.64, -43280.06, -0.08, 0.78, 0.59
74, -62208.86, -61223.88, -116552.01, -45792.78, -17895.74, -58519.17, -81955.33, -43897.39, 0.00, 0.00, 0.00
75, -62915.73, -61944.82, -109587.31, -32220.24, -18528.19, -59251.59, -82669.31, -44620.74, 0.00, 0.00, 0.00
76, -62240.57, -61567.52, -110992.26, -36921.35, -18285.76, -58650.37, -82380.05, -44038.68, 0.00, 0.00, 0.00
77, -61488.24, -60810.00, -117914.21, -50789.31, -17619.37, -57885.72, -81623.13, -43276.02, 0.00, 0.00, 0.00
78, -62032.79, -61086.13, -117355.84, -48007.16, -17789.66, -58362.68, -81821.20, -43735.30, 0.00, 0.00, 0.00
79, -62892.38, -61873.96, -110317.97, -33795.90, -18466.99, -59212.16, -82583.79, -44581.16, 0.00, 0.00, 0.00
80, -62450.48, -61718.17, -109780.01, -34622.96, -18411.38, -58839.71, -82508.38, -44229.27, 0.00, 0.00, 0.00
81, -61540.27, -60877.16, -116821.61, -49180.52, -17701.55, -57945.13, -81703.94, -43337.75, 0.00, 0.00, 0.00
82, -61877.58, -60970.95, -117932.18, -49832.27, -17705.31, -58218.52, -81710.80, -43596.45, 0.00, 0.00, 0.00
83, -62819.17, -61779.64, -111265.59, -35890.66, -18364.82, -59123.18, -82466.91, -44497.18, -0.08, 0.78, 0.58
84, -62629.56, -61847.30, -108867.66, -32842.89, -18491.29, -58998.55, -82593.09, -44387.07, 0.00, 0.00, 0.00
85, -61635.16, -61004.59, -115563.81, -47119.75, -17808.33, -58049.13, -81799.83, -43437.20, 0.00, 0.00, 0.00
86, -61733.23, -60892.65, -118286.63, -51195.84, -17637.25, -58100.14, -81612.27, -43467.64, 0.00, 0.00, 0.00
87, -62678.40, -61650.49, -112342.70, -38327.56, -18264.17, -59012.27, -82319.70, -44365.75, 0.00, 0.00, 0.00
88, -62759.76, -61935.03, -108247.80, -31655.32, -18556.89, -59130.62, -82645.69, -44504.80, 0.00, 0.00, 0.00
89, -61780.31, -61144.18, -114127.83, -44663.97, -17925.18, -58177.21, -81912.50, -43572.27, 0.00, 0.00, 0.00
90, -61644.90, -60834.27, -118318.64, -51971.61, -17593.33, -58002.57, -81549.27, -43381.36, 0.00, 0.00, 0.00
91, -62535.06, -61511.33, -113476.83, -40956.66, -18122.44, -58849.30, -82154.98, -44211.10, 0.00, 0.00, 0.00
92, -62895.66, -62004.14, -108000.41, -31184.37, -18584.02, -59239.59, -82676.38, -44612.23, 0.00, 0.00, 0.00
93, -61944.93, -61308.57, -112607.33, -41978.27, -18063.88, -58354.05, -82065.52, -43741.36, -0.07, 0.79, 0.59
94, -61583.61, -60821.26, -118036.07, -52123.95, -17596.01, -57958.18, -81543.32, -43335.63, 0.00, 0.00, 0.00
95, -62385.84, -61391.84, -114532.88, -43564.60, -18017.32, -58705.38, -82022.74, -44064.03, 0.00, 0.00, 0.00
96, -62947.67, -62020.43, -108104.52, -31452.01, -18573.67, -59284.04, -82654.52, -44648.75, 0.00, 0.00, 0.00
97, -62119.92, -61471.41, -111132.22, -39277.27, -18174.11, -58517.67, -82199.48, -43904.32, 0.00, 0.00, 0.00
98, -61551.16, -60829.46, -117490.71, -51669.83, -17599.03, -57929.48, -81558.43, -43311.22, 0.00, 0.00, 0.00
99, -62223.10, -61254.64, -115500.84, -46037.13, -17906.05, -58546.84, -81897.99, -43909.82, 0.00, 0.00, 0.00
100, -62960.88, -61988.85, -108555.63, -32451.07, -18550.36, -59291.71, -82624.63, -44654.52, 0.00, 0.00, 0.00
101, -62312.82, -61633.37, -109745.54, -36718.59, -18318.86, -58711.57, -82360.66, -44095.09, 0.00, 0.00, 0.00
102, -61538.89, -60854.68, -116655.92, -50608.01, -17650.95, -57936.55, -81600.56, -43319.29, 0.00, 0.00, 0.00
103, -62045.02, -61106.92, -116305.69, -48239.40, -17792.93, -58376.61, -81764.38, -43746.88, -0.07, 0.79, 0.59
104, -62912.85, -61900.52, -109332.64, -34110.93, -18459.99, -59232.97, -82525.81, -44599.71, 0.00, 0.00, 0.00
105, -62501.42, -61768.06, -108600.66, -34519.16, -18418.91, -58886.77, -82469.91, -44273.11, 0.00, 0.00, 0.00
106, -61619.15, -60950.84, -115581.47, -48987.20, -17728.46, -58005.25, -81684.65, -43402.19, 0.00, 0.00, 0.00
107, -61897.90, -61005.51, -116855.99, -50008.76, -17708.06, -58251.19, -81671.95, -43621.42, 0.00, 0.00, 0.00
108, -62820.65, -61802.62, -110275.05, -36222.10, -18369.31, -59158.05, -82425.74, -44519.67, 0.00, 0.00, 0.00
109, -62671.27, -61895.67, -107683.21, -32777.58, -18518.24, -59067.63, -82589.02, -44449.21, 0.00, 0.00, 0.00
110, -61690.23, -61044.11, -114293.32, -46883.39, -17833.43, -58105.86, -81789.99, -43495.58, 0.00, 0.00, 0.00
111, -61764.82, -60911.96, -117175.22, -51313.66, -17654.28, -58134.63, -81592.88, -43500.83, 0.00, 0.00, 0.00
112, -62703.59, -61686.50, -111373.73, -38693.30, -18267.43, -59038.38, -82295.99, -44386.18, 0.00, 0.00, 0.00
113, -62811.39, -61994.48, -107115.05, -31663.17, -18580.85, -59195.02, -82653.22, -44559.90, -0.07, 0.80, 0.58
114, -61798.61, -61169.91, -112846.04, -44409.83, -17952.74, -58237.40, -81925.65, -43613.06, 0.00, 0.00, 0.00
115, -61646.89, -60840.26, -117166.79, -52017.22, -17610.20, -58035.18, -81537.62, -43397.95, 0.00, 0.00, 0.00
116, -62539.26, -61523.04, -112490.72, -41301.86, -18137.03, -58870.89, -82138.91, -44221.61, 0.00, 0.00, 0.00
117, -62907.06, -62022.67, -106904.95, -31266.78, -18607.54, -59277.43, -82676.69, -44636.32, 0.00, 0.00, 0.00
118, -61971.04, -61337.83, -111336.29, -41721.21, -18091.97, -58391.29, -82075.42, -43770.21, 0.00, 0.00, 0.00
119, -61575.68, -60816.03, -116882.23, -52117.70, -17595.96, -57956.98, -81524.72, -43329.01, 0.00, 0.00, 0.00
120, -62376.56, -61383.27, -113550.86, -43898.13, -18016.47, -58706.99, -82008.26, -44061.37, 0.00, 0.00, 0.00
121, -62963.90, -62027.95, -107067.38, -31617.79, -18590.41, -59311.43, -82656.63, -44672.11, 0.00, 0.00, 0.00
122, -62154.52, -61501.07, -109874.06, -39022.05, -18216.85, -58573.95, -82228.89, -43950.32, 0.00, 0.00, 0.00
123, -61525.28, -60812.01, -116308.69, -51588.14, -17604.66, -57936.43, -81545.46, -43307.96, -0.07, 0.80, 0.58
124, -62194.09, -61228.31, -114541.87, -46378.84, -17884.52, -58535.93, -81867.51, -43897.98, 0.00, 0.00, 0.00
125, -62961.64, -61976.98, -107602.99, -32732.90, -18528.70, -59300.27, -82604.96, -44666.43, 0.00, 0.00, 0.00
126, -62342.99, -61651.94, -108557.79, -36513.72, -18324.43, -58749.61, -82364.90, -44133.20, 0.00, 0.00, 0.00
127, -61549.55, -60875.11, -115468.21, -50456.20, -17651.78, -57961.11, -81602.17, -43341.84, 0.00, 0.00, 0.00
128, -62018.31, -61097.93, -115319.40, -48502.64, -17766.15, -58369.90, -81740.70, -43737.76, 0.00, 0.00, 0.00
129, -62903.08, -61901.39, -108401.80, -34423.68, -18442.78, -59237.55, -82514.93, -44603.33, 0.00, 0.00, 0.00
130, -62520.93, -61798.37, -107446.30, -34363.73, -18430.44, -58924.54, -82492.89, -44307.79, 0.00, 0.00, 0.00
131, -61606.97, -60963.84, -114385.70, -48808.63, -17736.82, -58025.35, -81698.66, -43412.94, 0.00, 0.00, 0.00
132, -61887.26, -61001.35, -115830.27, -50182.95, -17702.51, -58243.44, -81653.84, -43614.18, 0.00, 0.00, 0.00
133, -62810.05, -61793.63, -109347.99, -36528.16, -18353.15, -59135.43, -82386.07, -44497.80, -0.06, 0.80, 0.59
134, -62671.65, -61897.66, -106583.09, -32677.85, -18509.41, -59060.86, -82557.48, -44433.97, 0.00, 0.00, 0.00
135, -61693.96, -61069.64, -113075.51, -46641.34, -17843.49, -58117.59, -81793.88, -43497.43, 0.00, 0.00, 0.00
136, -61745.66, -60913.00, -116122.47, -51421.64, -17635.46, -58111.45, -81571.44, -43477.58, 0.00, 0.00, 0.00
137, -62682.89, -61669.51, -110468.20, -39026.12, -18235.96, -59004.54, -82256.83, -44359.92, 0.00, 0.00, 0.00
138, -62803.97, -61982.55, -106078.09, -31654.70, -18562.88, -59182.93, -82625.16, -44548.43, 0.00, 0.00, 0.00
139, -61800.74, -61196.75, -111670.14, -44164.18, -17947.96, -58237.09, -81924.10, -43611.76, 0.00, 0.00, 0.00
140, -61631.47, -60855.84, -116125.24, -52082.20, -17595.31, -58021.30, -81539.18, -43384.94, 0.00, 0.00, 0.00
141, -62521.38, -61525.39, -111607.84, -41650.11, -18112.31, -58860.46, -82137.59, -44211.35, 0.00, 0.00, 0.00
142, -62902.99, -62028.04, -105960.41, -31372.44, -18578.28, -59279.73, -82675.73, -44638.76, 0.00, 0.00, 0.00
143, -61964.00, -61347.18, -110227.38, -41516.33, -18072.99, -58406.29, -82087.25, -43778.39, 0.00, 0.00, 0.00
144, -61547.29, -60814.02, -115851.10, -52136.05, -17582.42, -57958.65, -81533.88, -43321.50, -0.07, 0.81, 0.59
145, -62331.19, -61356.97, -112713.27, -44238.57, -17978.58, -58679.70, -81988.23, -44030.97, 0.00, 0.00, 0.00
146, -62938.38, -62009.04, -106191.03, -31784.65, -18551.28, -59301.46, -82645.82, -44658.98, 0.00, 0.00, 0.00
147, -62143.93, -61501.74, -108810.28, -38814.12, -18193.76, -58580.99, -82232.18, -43953.39, 0.00, 0.00, 0.00
148, -61521.03, -60826.11, -115280.59, -51530.61, -17587.56, -57942.63, -81556.91, -43310.82, 0.00, 0.00, 0.00
149, -62163.15, -61219.66, -113675.73, -46617.18, -17838.93, -58515.97, -81855.37, -43870.04, 0.00, 0.00, 0.00
150, -62922.98, -61953.40, -106773.74, -32919.29, -18473.25, -59277.36, -82582.00, -44627.94, 0.00, 0.00, 0.00
151, -62325.96, -61636.18, -107521.43, -36298.54, -18284.60, -58750.42, -82366.84, -44118.43, 0.00, 0.00, 0.00
152, -61535.16, -60857.61, -114440.62, -50327.79, -17603.09, -57951.88, -81609.93, -43323.18, 0.00, 0.00, 0.00
153, -61991.67, -61072.07, -114455.45, -48682.90, -17704.46, -58349.81, -81740.17, -43706.64, 0.00, 0.00, 0.00
154, -62866.78, -61859.90, -107604.67, -34628.19, -18356.39, -59206.82, -82499.57, -44559.43, -0.07, 0.81, 0.57
155, -62512.66, -61775.79, -106435.56, -34126.13, -18357.02, -58918.82, -82504.42, -44288.95, 0.00, 0.00, 0.00
156, -61566.56, -60920.08, -113341.76, -48552.57, -17646.61, -57996.79, -81703.67, -43368.55, 0.00, 0.00, 0.00
157, -61826.91, -60941.00, -114990.63, -50319.18, -17579.00, -58186.64, -81647.05, -43550.03, 0.00, 0.00, 0.00
158, -62766.69, -61738.33, -108611.68, -36792.89, -18220.20, -59092.80, -82389.22, -44449.21, 0.00, 0.00, 0.00
159, -62667.74, -61874.63, -105647.62, -32508.87, -18396.13, -59053.38, -82597.52, -44424.63, 0.00, 0.00, 0.00
160, -61678.32, -61039.91, -112052.73, -46344.20, -17717.89, -58102.29, -81831.09, -43483.39, 0.00, 0.00, 0.00
161, -61698.57, -60859.39, -115251.29, -51459.68, -17488.41, -58071.13, -81586.19, -43438.54, 0.00, 0.00, 0.00
162, -62626.28, -61591.14, -109741.59, -39271.93, -18061.15, -58941.64, -82245.63, -44304.15, 0.00, 0.00, 0.00
163, -62787.81, -61933.57, -105182.27, -31535.61, -18414.35, -59156.50, -82638.73, -44527.63, 0.00, 0.00, 0.00
164, -61793.00, -61165.97, -110627.70, -43806.00, -17813.71, -58218.36, -81944.02, -43601.95, -0.07, 0.80, 0.58
165, -61578.43, -60787.09, -115236.52, -52053.10, -17426.69, -57959.99, -81520.70, -43332.63, 0.00, 0.00, 0.00
166, -62453.25, -61431.15, -110877.50, -41879.72, -17918.92, -58769.77, -82079.54, -44131.11, 0.00, 0.00, 0.00
167, -62878.94, -61968.89, -105084.91, -31296.15, -18414.17, -59221.44, -82635.47, -44593.47, 0.00, 0.00, 0.00
168, -61949.45, -61305.40, -109169.20, -41115.79, -17928.58, -58368.76, -82072.27, -43751.21, 0.00, 0.00, 0.00
169, -61511.77, -60759.46, -114915.45, -52018.23, -17423.16, -57910.60, -81504.43, -43279.19, 0.00, 0.00, 0.00
170, -62274.08, -61283.56, -111931.34, -44420.85, -17799.63, -58616.71, -81940.17, -43972.63, 0.00, 0.00, 0.00
171, -62903.68, -61952.82, -105335.90, -31787.38, -18384.91, -59252.10, -82606.32, -44616.07, 0.00, 0.00, 0.00
172, -62122.16, -61463.09, -107742.67, -38422.96, -18047.22, -58537.79, -82206.72, -43917.85, 0.00, 0.00, 0.00
173, -61464.43, -60763.50, -114321.75, -51365.92, -17429.51, -57866.16, -81507.69, -43239.63, 0.00, 0.00, 0.00
174, -62123.86, -61159.76, -112876.62, -46781.28, -17687.76, -58442.84, -81806.31, -43809.62, -0.07, 0.80, 0.58
175, -62898.45, -61911.43, -105923.95, -32980.24, -18335.74, -59222.15, -82541.66, -44587.28, 0.00, 0.00, 0.00
176, -62324.93, -61630.13, -106446.63, -35942.18, -18184.26, -58725.34, -82357.26, -44110.63, 0.00, 0.00, 0.00
177, -61516.45, -60829.53, -113428.64, -50122.96, -17500.32, -57904.16, -81583.84, -43297.61, 0.00, 0.00, 0.00
178, -61941.98, -61023.30, -113615.95, -48818.31, -17587.18, -58280.70, -81690.91, -43651.48, 0.00, 0.00, 0.00
179, -62815.26, -61803.13, -106771.91, -34759.00, -18240.43, -59138.73, -82440.67, -44500.29, 0.00, 0.00, 0.00
180, -62501.29, -61754.85, -105382.75, -33829.16, -18276.91, -58885.11, -82474.56, -44264.54, 0.00, 0.00, 0.00
181, -61557.51, -60906.54, -112292.43, -48280.13, -17576.72, -57967.28, -81683.02, -43352.61, 0.00, 0.00, 0.00
182, -61780.80, -60900.99, -114126.98, -50432.22, -17503.23, -58141.96, -81608.66, -43507.85, 0.00, 0.00, 0.00
183, -62732.96, -61698.99, -107775.23, -36971.04, -18155.72, -59054.85, -82350.17, -44414.48, 0.00, 0.00, 0.00
184, -62670.15, -61865.83, -104578.29, -32259.69, -18361.38, -59044.41, -82584.15, -44424.94, -0.06, 0.79, 0.59
185, -61648.61, -61017.15, -110956.52, -46020.30, -17680.77, -58070.21, -81806.02, -43459.43, 0.00, 0.00, 0.00
186, -61646.27, -60813.89, -114370.16, -51553.65, -17432.55, -58015.65, -81538.94, -43393.14, 0.00, 0.00, 0.00
187, -62578.31, -61554.00, -108923.11, -39503.93, -18018.05, -58904.64, -82206.00, -44273.48, 0.00, 0.00, 0.00
188, -62777.00, -61935.45, -104159.95, -31380.48, -18397.18, -59153.04, -82629.57, -44533.59, 0.00, 0.00, 0.00
189, -61784.00, -61170.57, -109514.58, -43467.75, -17803.12, -58209.95, -81937.38, -43605.37, 0.00, 0.00, 0.00
190, -61568.70, -60786.15, -114295.69, -52063.89, -17415.63, -57944.01, -81506.52, -43333.46, 0.00, 0.00, 0.00
191, -62451.53, -61433.79, -110021.14, -42102.17, -17908.60, -58765.86, -82077.63, -44148.27, 0.00, 0.00, 0.00
192, -62873.13, -61966.72, -104089.70, -31234.37, -18398.17, -59217.39, -82635.54, -44601.43, 0.00, 0.00, 0.00
193, -61968.55, -61326.46, -108047.37, -40771.19, -17920.09, -58365.84, -82075.00, -43766.37, 0.00, 0.00, 0.00
194, -61511.35, -60773.32, -113945.55, -51979.23, -17409.53, -57888.67, -81495.28, -43275.97, -0.06, 0.78, 0.60
195, -62248.96, -61277.26, -111115.59, -44689.79, -17771.47, -58580.61, -81913.62, -43945.63, 0.00, 0.00, 0.00
196, -62899.98, -61957.22, -104395.09, -31823.32, -18376.06, -59243.23, -82601.72, -44610.01, 0.00, 0.00, 0.00
197, -62153.09, -61496.13, -106594.35, -38064.39, -18063.76, -58557.12, -82234.14, -43949.83, 0.00, 0.00, 0.00
198, -61476.01, -60778.62, -113285.79, -51228.77, -17428.53, -57865.69, -81524.77, -43257.17, 0.00, 0.00, 0.00
199, -62093.46, -61141.81, -112035.68, -47043.71, -17654.68, -58407.27, -81798.59, -43790.62, 0.00, 0.00, 0.00
200, -62874.92, -61895.11, -105019.09, -33114.27, -18308.58, -59199.53, -82539.52, -44575.50, 0.00, 0.00, 0.00
201, -62323.93, -61641.13, -105314.35, -35618.80, -18181.51, -58731.13, -82379.84, -44120.98, 0.00, 0.00, 0.00
202, -61488.33, -60833.38, -112344.70, -49883.86, -17494.42, -57897.68, -81603.91, -43290.10, 0.00, 0.00, 0.00
203, -61916.14, -61010.05, -112744.81, -49037.96, -17561.25, -58257.00, -81694.02, -43637.36, 0.00, 0.00, 0.00
204, -62814.59, -61808.25, -105887.16, -34961.17, -18220.40, -59138.04, -82453.80, -44512.56, -0.06, 0.77, 0.60
205, -62510.85, -61772.78, -104277.61, -33590.47, -18267.05, -58903.66, -82502.50, -44293.42, 0.00, 0.00, 0.00
206, -61554.67, -60923.01, -111177.93, -48029.18, -17574.71, -57970.81, -81707.13, -43365.45, 0.00, 0.00, 0.00
207, -61764.11, -60897.66, -113218.49, -50607.01, -17477.54, -58124.68, -81615.58, -43504.03, 0.00, 0.00, 0.00
208, -62699.12, -61682.39, -106940.42, -37256.47, -18108.38, -59028.70, -82346.35, -44398.18, 0.00, 0.00, 0.00
209, -62665.95, -61874.36, -103532.63, -32116.04, -18355.30, -59056.13, -82609.54, -44440.90, 0.00, 0.00, 0.00
210, -61670.99, -61049.63, -109813.80, -45718.48, -17706.80, -58100.65, -81855.08, -43498.77, 0.00, 0.00, 0.00
211, -61639.67, -60813.33, -113423.39, -51655.91, -17434.34, -58012.41, -81557.40, -43397.70, 0.00, 0.00, 0.00
212, -62575.81, -61550.58, -108064.55, -39801.13, -18016.06, -58903.46, -82219.93, -44276.50, 0.00, 0.00, 0.00
213, -62803.17, -61947.57, -103129.96, -31315.60, -18406.79, -59174.30, -82657.17, -44558.92, 0.00, 0.00, 0.00
214, -61827.29, -61205.04, -108341.12, -43119.48, -17841.36, -58250.99, -81992.84, -43650.52, -0.06, 0.78, 0.60
215, -61545.28, -60770.73, -113284.41, -52065.32, -17428.64, -57946.80, -81534.91, -43328.68, 0.00, 0.00, 0.00
216, -62394.38, -61390.52, -109190.68, -42431.23, -17905.78, -58746.71, -82077.73, -44110.92, 0.00, 0.00, 0.00
217, -62864.82, -61952.48, -103126.90, -31274.49, -18420.83, -59241.78, -82663.14, -44618.17, 0.00, 0.00, 0.00
218, -61980.40, -61342.39, -106872.65, -40413.23, -17976.10, -58427.61, -82144.54, -43821.18, 0.00, 0.00, 0.00
219, -61499.08, -60760.33, -112893.27, -51869.97, -17437.18, -57906.02, -81542.65, -43296.64, 0.00, 0.00, 0.00
220, -62254.57, -61263.52, -110259.05, -44972.40, -17789.11, -58587.09, -81950.01, -43964.56, 0.00, 0.00, 0.00
221, -62901.32, -61953.29, -103472.39, -31956.15, -18400.92, -59269.96, -82640.48, -44638.11, 0.00, 0.00, 0.00
222, -62152.53, -61507.77, -105461.49, -37767.65, -18109.25, -58609.11, -82290.20, -43990.24, 0.00, 0.00, 0.00
223, -61477.40, -60793.48, -112185.26, -51033.48, -17482.55, -57918.09, -81587.87, -43300.13, 0.00, 0.00, 0.00
224, -62068.38, -61130.84, -111125.96, -47250.60, -17691.85, -58437.16, -81834.02, -43800.93, -0.07, 0.79, 0.60
225, -62881.07, -61904.27, -104102.80, -33306.89, -18349.35, -59243.27, -82575.52, -44600.09, 0.00, 0.00, 0.00
226, -62361.41, -61674.59, -104187.55, -35371.07, -18230.39, -58789.89, -82424.60, -44163.74, 0.00, 0.00, 0.00
227, -61515.11, -60866.50, -111214.43, -49627.49, -17539.55, -57939.96, -81641.17, -43318.77, 0.00, 0.00, 0.00
228, -61901.52, -61002.98, -111829.93, -49205.80, -17576.94, -58264.63, -81697.57, -43624.95, 0.00, 0.00, 0.00
229, -62812.85, -61809.12, -105017.66, -35234.15, -18248.70, -59157.04, -82461.35, -44509.30, 0.00, 0.00, 0.00
230, -62534.30, -61800.07, -103194.05, -33425.40, -18317.03, -58945.26, -82530.04, -44317.14, 0.00, 0.00, 0.00
231, -61578.65, -60952.80, -110037.73, -47718.56, -17623.37, -58010.71, -81736.39, -43391.24, 0.00, 0.00, 0.00
232, -61766.29, -60911.09, -112266.82, -50688.99, -17503.83, -58137.09, -81619.13, -43502.39, 0.00, 0.00, 0.00
233, -62710.59, -61694.10, -106091.37, -37568.23, -18133.34, -59041.39, -82341.79, -44398.97, 0.00, 0.00, 0.00
234, -62690.67, -61899.55, -102512.05, -32064.40, -18378.65, -59082.68, -82613.20, -44455.14, -0.05, 0.78, 0.60
235, -61698.79, -61089.19, -108691.41, -45423.84, -17733.74, -58123.39, -81866.26, -43513.97, 0.00, 0.00, 0.00
236, -61661.78, -60854.39, -112421.02, -51633.06, -17465.41, -58030.07, -81572.29, -43413.46, 0.00, 0.00, 0.00
237, -62571.40, -61561.08, -107210.49, -40093.80, -18021.27, -58892.62, -82214.38, -44266.22, 0.00, 0.00, 0.00
238, -62832.25, -61979.35, -102143.06, -31337.57, -18429.91, -59191.38, -82670.43, -44579.39, 0.00, 0.00, 0.00
239, -61864.91, -61247.15, -107207.92, -42803.05, -17868.48, -58277.30, -82017.58, -43683.36, 0.00, 0.00, 0.00
240, -61567.32, -60800.65, -112281.73, -51980.90, -17435.25, -57948.95, -81547.72, -43341.95, 0.00, 0.00, 0.00
241, -62403.16, -61405.67, -108346.81, -42704.28, -17889.38, -58736.96, -82076.25, -44109.91, 0.00, 0.00, 0.00
242, -62887.23, -61980.43, -102187.05, -31393.83, -18411.56, -59252.82, -82666.45, -44628.54, 0.00, 0.00, 0.00
243, -62035.63, -61398.56, -105733.88, -40117.71, -17998.41, -58465.14, -82170.80, -43858.05, 0.00, 0.00, 0.00
244, -61512.87, -60782.82, -111856.13, -51721.20, -17436.95, -57915.31, -81543.72, -43304.43, -0.05, 0.78, 0.60
245, -62243.91, -61268.57, -109389.79, -45213.78, -17780.61, -58586.36, -81937.27, -43959.58, 0.00, 0.00, 0.00
246, -62929.28, -61975.44, -102548.59, -32154.26, -18395.20, -59277.76, -82628.67, -44651.07, 0.00, 0.00, 0.00
247, -62219.70, -61563.41, -104330.61, -37516.64, -18126.28, -58635.80, -82293.11, -44030.79, 0.00, 0.00, 0.00
248, -61503.15, -60824.41, -111122.56, -50833.05, -17478.04, -57912.16, -81558.63, -43305.63, 0.00, 0.00, 0.00
249, -62079.87, -61148.07, -110255.59, -47447.88, -17674.60, -58426.16, -81790.95, -43802.02, 0.00, 0.00, 0.00
250, -62909.52, -61931.07, -103231.62, -33583.61, -18341.64, -59254.50, -82545.26, -44619.54, 0.00, 0.00, 0.00
251, -62421.18, -61731.79, -103093.55, -35190.83, -18249.10, -58836.29, -82421.38, -44215.75, 0.00, 0.00, 0.00
252, -61559.18, -60920.82, -110116.54, -49375.25, -17559.73, -57975.59, -81630.45, -43357.64, 0.00, 0.00, 0.00
253, -61920.32, -61037.23, -110894.04, -49298.49, -17573.54, -58271.49, -81667.33, -43640.08, 0.00, 0.00, 0.00
254, -62848.07, -61841.93, -104147.28, -35526.67, -18229.86, -59168.30, -82425.45, -44534.26, -0.03, 0.79, 0.60
255, -62606.92, -61862.72, -102121.95, -33309.51, -18313.16, -58985.60, -82497.96, -44367.81, 0.00, 0.00, 0.00
0, -61608.00, -61005.08, -108924.79, -47433.55, -17621.62, -58037.58, -81696.23, -43412.23, 0.00, 0.00, 0.00
1, -61765.67, -60935.41, -111320.76, -50713.83, -17492.21, -58142.94, -81567.21, -43500.72, 0.00, 0.00, 0.00
2, -62697.76, -61708.29, -105235.23, -37851.63, -18116.36, -59048.64, -82286.85, -44391.50, 0.00, 0.00, 0.00
3, -62738.19, -61957.13, -101463.82, -31994.87, -18386.19, -59133.30, -82577.27, -44493.70, 0.00, 0.00, 0.00
4, -61733.48, -61140.38, -107549.69, -45063.51, -17734.81, -58170.95, -81821.66, -43540.53, 0.00, 0.00, 0.00
5, -61654.34, -60869.97, -111468.37, -51596.09, -17435.52, -58037.35, -81496.55, -43399.73, 0.00, 0.00, 0.00
6, -62584.68, -61583.66, -106405.19, -40408.80, -17991.90, -58903.10, -82134.92, -44263.05, 0.00, 0.00, 0.00
7, -62875.99, -62024.95, -101180.84, -31389.27, -18416.92, -59234.38, -82607.15, -44604.58, 0.00, 0.00, 0.00
8, -61900.38, -61302.38, -106088.57, -42476.79, -17873.93, -58328.30, -81964.67, -43706.29, -0.01, 0.80, 0.60
9, -61579.03, -60838.61, -111310.21, -51894.29, -17423.88, -57962.50, -81461.76, -43333.82, 0.00, 0.00, 0.00
10, -62421.76, -61437.93, -107536.52, -42986.52, -17868.61, -58738.41, -81982.53, -44100.73, 0.00, 0.00, 0.00
11, -62933.37, -62034.27, -101261.53, -31504.25, -18409.61, -59276.94, -82587.16, -44642.36, 0.00, 0.00, 0.00
12, -62070.48, -61458.45, -104623.82, -39798.09, -17999.99, -58484.21, -82087.25, -43862.48, 0.00, 0.00, 0.00
13, -61541.32, -60842.65, -110840.80, -51548.11, -17439.70, -57929.10, -81466.02, -43304.18, 0.00, 0.00, 0.00
14, -62244.04, -61298.56, -108544.83, -45415.03, -17757.16, -58574.73, -81845.88, -43933.94, 0.00, 0.00, 0.00
15, -62937.86, -62004.45, -101672.05, -32315.17, -18375.03, -59276.82, -82547.31, -44633.97, 0.00, 0.00, 0.00
16, -62256.45, -61614.04, -103237.63, -37210.82, -18122.26, -58660.52, -82237.74, -44036.49, 0.00, 0.00, 0.00
17, -61526.28, -60864.16, -110103.48, -50614.25, -17465.00, -57920.43, -81506.48, -43298.88, 0.00, 0.00, 0.00
18, -62070.14, -61153.16, -109427.90, -47628.28, -17630.74, -58406.76, -81718.96, -43773.90, -0.01, 0.80, 0.59
19, -62917.07, -61939.07, -102406.64, -33788.77, -18298.12, -59242.04, -82483.21, -44611.73, 0.00, 0.00, 0.00
20, -62438.01, -61756.68, -102039.76, -34928.45, -18234.78, -58843.09, -82383.56, -44223.28, 0.00, 0.00, 0.00
21, -61546.96, -60925.89, -109064.02, -49088.27, -17545.81, -57963.32, -81588.18, -43342.20, 0.00, 0.00, 0.00
22, -61900.34, -61032.29, -110032.54, -49424.31, -17564.74, -58249.70, -81620.50, -43615.83, 0.00, 0.00, 0.00
23, -62810.07, -61820.39, -103336.34, -35754.12, -18222.77, -59141.15, -82366.24, -44499.55, 0.00, 0.00, 0.00
24, -62600.77, -61864.20, -101098.13, -33099.91, -18337.73, -58994.48, -82478.25, -44369.02, 0.00, 0.00, 0.00
25, -61637.57, -61027.55, -107835.83, -47110.82, -17664.02, -58056.73, -81701.95, -43443.83, 0.00, 0.00, 0.00
26, -61766.03, -60932.29, -110430.58, -50805.43, -17517.73, -58127.14, -81555.86, -43500.36, 0.00, 0.00, 0.00
27, -62675.65, -61675.73, -104457.84, -38132.07, -18127.96, -59017.07, -82258.87, -44369.48, 0.00, 0.00, 0.00
28, -62718.61, -61935.59, -100492.59, -31875.84, -18419.89, -59126.64, -82573.24, -44485.69, -0.03, 0.79, 0.59
29, -61729.64, -61135.37, -106434.58, -44724.79, -17791.52, -58174.48, -81843.03, -43548.04, 0.00, 0.00, 0.00
30, -61612.40, -60823.36, -110519.56, -51628.44, -17462.32, -58003.40, -81494.03, -43370.18, 0.00, 0.00, 0.00
31, -62504.19, -61511.98, -105614.76, -40701.54, -17993.24, -58851.94, -82110.61, -44203.90, 0.00, 0.00, 0.00
32, -62816.60, -61968.33, -100250.70, -31361.35, -18432.57, -59206.80, -82601.30, -44566.85, 0.00, 0.00, 0.00
33, -61881.36, -61272.32, -104983.44, -42136.77, -17899.79, -58319.25, -81984.43, -43702.24, 0.00, 0.00, 0.00
34, -61528.98, -60790.11, -110324.01, -51847.53, -17439.75, -57940.95, -81484.17, -43309.39, 0.00, 0.00, 0.00
35, -62330.12, -61360.27, -106714.55, -43242.73, -17864.90, -58694.56, -81980.20, -44044.87, 0.00, 0.00, 0.00
36, -62882.09, -61974.88, -100358.37, -31538.71, -18418.04, -59258.21, -82610.34, -44620.00, 0.00, 0.00, 0.00
37, -62022.64, -61406.61, -103517.14, -39460.13, -18016.15, -58478.82, -82138.21, -43849.58, 0.00, 0.00, 0.00
38, -61463.72, -60772.96, -109818.85, -51445.93, -17446.23, -57902.97, -81501.25, -43265.58, 0.00, 0.00, 0.00
39, -62161.34, -61214.25, -107725.81, -45680.84, -17750.73, -58537.70, -81861.27, -43886.84, -0.05, 0.79, 0.59
40, -62868.95, -61923.29, -100816.78, -32448.14, -18376.06, -59253.78, -82565.80, -44602.55, 0.00, 0.00, 0.00
41, -62205.51, -61551.74, -102146.80, -36922.62, -18145.84, -58659.04, -82282.38, -44025.65, 0.00, 0.00, 0.00
42, -61473.60, -60811.65, -108999.48, -50426.74, -17496.07, -57918.04, -81552.93, -43288.15, 0.00, 0.00, 0.00
43, -61983.11, -61069.97, -108533.14, -47832.73, -17630.59, -58364.71, -81730.56, -43724.08, 0.00, 0.00, 0.00
44, -62837.21, -61854.16, -101562.50, -33992.13, -18294.05, -59200.18, -82486.52, -44559.00, 0.00, 0.00, 0.00
45, -62396.34, -61701.14, -100989.85, -34708.39, -18235.40, -58824.13, -82404.11, -44198.74, 0.00, 0.00, 0.00
46, -61521.23, -60877.19, -107984.45, -48881.72, -17547.86, -57953.91, -81626.27, -43334.58, 0.00, 0.00, 0.00
47, -61838.98, -60958.95, -109150.63, -49620.25, -17535.72, -58216.55, -81631.49, -43580.13, 0.00, 0.00, 0.00
48, -62748.36, -61747.16, -102541.73, -36044.94, -18188.31, -59105.48, -82370.06, -44458.40, 0.00, 0.00, 0.00
49, -62566.71, -61825.23, -100081.50, -32943.43, -18327.18, -58990.12, -82511.53, -44359.29, -0.06, 0.78, 0.60
50, -61612.94, -61006.78, -106695.91, -46802.11, -17656.80, -58055.23, -81728.91, -43439.52, 0.00, 0.00, 0.00
51, -61721.14, -60889.37, -109456.60, -50880.14, -17480.45, -58098.80, -81537.46, -43475.39, 0.00, 0.00, 0.00
52, -62644.47, -61638.98, -103610.70, -38407.11, -18086.34, -58992.15, -82234.77, -44350.44, 0.00, 0.00, 0.00
53, -62717.56, -61920.68, -99483.16, -31788.45, -18391.82, -59130.02, -82564.19, -44493.25, 0.00, 0.00, 0.00
54, -61727.85, -61136.09, -105270.50, -44383.61, -17774.26, -58188.38, -81842.88, -43559.04, 0.00, 0.00, 0.00
55, -61593.00, -60816.64, -109510.27, -51624.13, -17427.65, -57999.89, -81477.00, -43359.12, 0.00, 0.00, 0.00
56, -62491.32, -61503.80, -104776.05, -40988.54, -17951.83, -58848.92, -82088.50, -44197.80, 0.00, 0.00, 0.00
57, -62834.39, -61978.48, -99306.00, -31376.60, -18400.09, -59227.36, -82591.01, -44582.32, 0.00, 0.00, 0.00
58, -61897.77, -61293.76, -103835.67, -41789.91, -17881.28, -58341.61, -81970.20, -43716.01, 0.00, 0.00, 0.00
59, -61531.87, -60810.13, -109270.43, -51744.40, -17420.90, -57951.66, -81464.98, -43315.85, -0.04, 0.78, 0.60
60, -62320.91, -61363.47, -105857.57, -43503.71, -17835.15, -58685.66, -81949.07, -44036.20, 0.00, 0.00, 0.00
61, -62878.56, -61982.82, -99465.26, -31657.74, -18387.84, -59252.08, -82568.84, -44607.78, 0.00, 0.00, 0.00
62, -62059.21, -61447.74, -102392.09, -39133.75, -18014.54, -58500.26, -82119.48, -43871.58, 0.00, 0.00, 0.00
63, -61485.76, -60810.71, -108722.37, -51230.58, -17439.75, -57906.37, -81472.71, -43272.91, 0.00, 0.00, 0.00
64, -62157.41, -61231.17, -106844.69, -45894.88, -17720.37, -58506.79, -81811.90, -43861.48, 0.00, 0.00, 0.00
65, -62876.21, -61946.89, -100013.13, -32703.78, -18340.07, -59231.74, -82514.23, -44585.05, 0.00, 0.00, 0.00
66, -62261.81, -61619.20, -101109.52, -36685.25, -18139.65, -58679.59, -82254.95, -44052.85, 0.00, 0.00, 0.00
67, -61522.37, -60871.98, -107910.95, -50122.67, -17486.87, -57926.82, -81519.85, -43301.88, 0.00, 0.00, 0.00
68, -61997.39, -61114.18, -107619.78, -47915.81, -17620.86, -58357.32, -81688.70, -43705.75, 0.00, 0.00, 0.00
69, -62823.44, -61879.08, -100801.49, -34283.17, -18265.13, -59178.61, -82424.60, -44520.45, -0.03, 0.79, 0.60
70, -62432.40, -61755.88, -100019.60, -34550.81, -18239.78, -58847.61, -82377.73, -44207.21, 0.00, 0.00, 0.00
71, -61553.66, -60948.20, -106856.91, -48490.95, -17569.05, -57976.58, -81613.59, -43342.36, 0.00, 0.00, 0.00
72, -61833.30, -60991.92, -108205.17, -49597.04, -17527.16, -58189.39, -81599.02, -43542.87, 0.00, 0.00, 0.00
73, -62735.42, -61757.73, -101813.73, -36349.70, -18160.39, -59062.27, -82337.01, -44412.64, 0.00, 0.00, 0.00
74, -62600.80, -61863.77, -99221.38, -32913.70, -18320.18, -58980.42, -82504.11, -44349.41, 0.00, 0.00, 0.00
75, -61657.44, -61059.46, -105655.51, -46451.06, -17665.16, -58063.48, -81758.59, -43444.12, 0.00, 0.00, 0.00
76, -61704.38, -60899.43, -108535.28, -50799.77, -17465.54, -58067.75, -81558.59, -43432.37, 0.00, 0.00, 0.00
77, -62604.26, -61624.90, -102933.31, -38711.75, -18038.75, -58929.30, -82235.17, -44284.46, 0.00, 0.00, 0.00
78, -62722.55, -61925.13, -98737.13, -31860.89, -18356.01, -59095.13, -82584.95, -44461.06, 0.00, 0.00, 0.00
79, -61760.64, -61160.34, -104312.73, -44057.57, -17760.18, -58177.57, -81885.10, -43555.34, -0.04, 0.79, 0.59
80, -61600.31, -60831.97, -108596.30, -51462.41, -17413.89, -57980.22, -81525.52, -43343.52, 0.00, 0.00, 0.00
81, -62463.16, -61490.34, -104084.18, -41219.90, -17920.76, -58796.42, -82103.66, -44146.06, 0.00, 0.00, 0.00
82, -62804.98, -61965.83, -98608.34, -31502.10, -18379.32, -59181.47, -82607.48, -44538.57, 0.00, 0.00, 0.00
83, -61908.54, -61306.96, -102893.99, -41476.57, -17888.19, -58326.27, -82027.79, -43704.16, 0.00, 0.00, 0.00
84, -61543.38, -60805.77, -108334.92, -51524.01, -17417.08, -57918.55, -81508.38, -43294.50, 0.00, 0.00, 0.00
85, -62289.57, -61337.41, -105158.85, -43707.70, -17814.70, -58644.16, -81983.07, -43996.14, 0.00, 0.00, 0.00
86, -62842.98, -61949.36, -98833.55, -31871.08, -18367.75, -59222.60, -82604.98, -44571.41, 0.00, 0.00, 0.00
87, -62061.20, -61446.20, -101522.42, -38897.04, -18021.59, -58502.25, -82175.16, -43867.78, 0.00, 0.00, 0.00
88, -61480.24, -60805.66, -107777.90, -50975.86, -17450.99, -57907.58, -81541.64, -43269.20, 0.00, 0.00, 0.00
89, -62113.46, -61196.35, -106107.05, -46024.68, -17705.91, -58477.04, -81845.00, -43826.00, -0.06, 0.80, 0.59
90, -62846.20, -61914.71, -99359.18, -32903.46, -18324.29, -59211.51, -82548.23, -44558.18, 0.00, 0.00, 0.00
91, -62244.46, -61595.08, -100249.45, -36470.04, -18133.46, -58682.13, -82312.17, -44041.92, 0.00, 0.00, 0.00
92, -61503.86, -60862.77, -106958.10, -49855.43, -17495.76, -57933.86, -81589.63, -43297.96, 0.00, 0.00, 0.00
93, -61968.49, -61083.98, -106854.97, -48018.27, -17592.52, -58335.68, -81722.91, -43690.21, 0.00, 0.00, 0.00
94, -62808.11, -61844.77, -100165.27, -34533.76, -18224.45, -59164.24, -82452.19, -44512.63, 0.00, 0.00, 0.00
95, -62442.55, -61748.64, -99180.03, -34381.00, -18226.82, -58862.13, -82424.54, -44225.96, 0.00, 0.00, 0.00
96, -61555.63, -60946.16, -105895.55, -48187.61, -17576.74, -57993.27, -81667.05, -43356.01, 0.00, 0.00, 0.00
97, -61797.65, -60966.95, -107406.07, -49658.02, -17530.96, -58185.61, -81624.77, -43531.07, 0.00, 0.00, 0.00
98, -62697.02, -61727.22, -101166.25, -36632.52, -18167.21, -59056.48, -82339.42, -44399.21, 0.00, 0.00, 0.00
99, -62592.41, -61852.46, -98393.43, -32812.96, -18346.78, -59002.03, -82520.41, -44363.45, -0.05, 0.80, 0.59
100, -61650.63, -61056.38, -104654.64, -46106.55, -17706.29, -58083.40, -81782.95, -43448.97, 0.00, 0.00, 0.00
101, -61681.34, -60889.64, -107669.71, -50793.38, -17492.90, -58069.56, -81559.41, -43420.18, 0.00, 0.00, 0.00
102, -62559.71, -61595.66, -102252.34, -39015.53, -18057.21, -58926.82, -82212.84, -44264.97, 0.00, 0.00, 0.00
103, -62703.04, -61914.57, -97955.82, -31881.03, -18384.69, -59109.39, -82574.09, -44459.18, 0.00, 0.00, 0.00
104, -61766.25, -61180.16, -103300.38, -43719.38, -17812.24, -58210.76, -81904.23, -43572.85, 0.00, 0.00, 0.00
105, -61589.52, -60838.83, -107661.24, -51377.74, -17457.36, -57993.03, -81527.00, -43347.43, 0.00, 0.00, 0.00
106, -62423.55, -61463.16, -103362.51, -41512.39, -17940.54, -58790.81, -82087.80, -44131.86, 0.00, 0.00, 0.00
107, -62789.02, -61947.14, -97856.47, -31627.74, -18395.73, -59196.00, -82597.78, -44543.14, 0.00, 0.00, 0.00
108, -61906.93, -61317.96, -101895.14, -41168.65, -17928.18, -58362.50, -82033.23, -43723.61, 0.00, 0.00, 0.00
109, -61513.07, -60809.39, -107355.41, -51374.63, -17447.84, -57931.88, -81501.48, -43289.38, -0.05, 0.80, 0.59
110, -62252.67, -61316.24, -104437.59, -44012.24, -17805.82, -58608.89, -81925.47, -43955.22, 0.00, 0.00, 0.00
111, -62836.59, -61952.44, -98126.37, -32108.75, -18373.96, -59216.90, -82563.54, -44563.07, 0.00, 0.00, 0.00
112, -62077.41, -61475.27, -100513.89, -38581.59, -18047.60, -58529.11, -82173.50, -43888.18, 0.00, 0.00, 0.00
113, -61470.69, -60820.64, -106745.78, -50705.20, -17466.03, -57911.45, -81518.53, -43263.25, 0.00, 0.00, 0.00
114, -62061.61, -61170.80, -105335.27, -46249.69, -17685.39, -58440.55, -81783.63, -43782.68, 0.00, 0.00, 0.00
115, -62805.61, -61887.87, -98721.48, -33263.02, -18304.80, -59179.77, -82485.91, -44522.48, 0.00, 0.00, 0.00
116, -62260.80, -61625.68, -99311.86, -36255.31, -18165.51, -58702.56, -82304.59, -44059.15, 0.00, 0.00, 0.00
117, -61503.21, -60881.23, -105892.39, -49496.64, -17522.58, -57940.55, -81579.41, -43304.04, 0.00, 0.00, 0.00
118, -61930.18, -61067.67, -106014.03, -48127.82, -17597.55, -58302.20, -81689.52, -43654.50, 0.00, 0.00, 0.00
119, -62750.02, -61806.39, -99526.19, -34927.68, -18224.09, -59122.93, -82402.74, -44462.25, -0.06, 0.80, 0.59
120, -62419.50, -61742.94, -98328.20, -34315.05, -18249.46, -58864.28, -82404.62, -44215.48, 0.00, 0.00, 0.00
121, -61549.95, -60959.82, -104827.58, -47809.55, -17598.60, -58010.64, -81666.43, -43369.42, 0.00, 0.00, 0.00
122, -61775.30, -60962.23, -106491.17, -49651.54, -17521.24, -58178.91, -81604.41, -43527.79, 0.00, 0.00, 0.00
123, -62659.47, -61703.20, -100477.95, -36976.71, -18126.10, -59030.69, -82294.78, -44374.11, 0.00, 0.00, 0.00
124, -62578.00, -61842.11, -97572.54, -32805.83, -18317.77, -59006.97, -82492.46, -44363.16, 0.00, 0.00, 0.00
125, -61659.18, -61072.12, -103567.01, -45679.30, -17697.87, -58111.32, -81776.49, -43480.36, 0.00, 0.00, 0.00
126, -61663.92, -60882.71, -106684.98, -50642.59, -17462.79, -58062.75, -81537.69, -43423.67, 0.00, 0.00, 0.00
127, -62513.71, -61563.39, -101549.73, -39322.44, -18001.89, -58886.83, -82154.77, -44230.30, 0.00, 0.00, 0.00
128, -62663.16, -61887.02, -97197.12, -31981.21, -18340.05, -59093.09, -82524.25, -44440.23, 0.00, 0.00, 0.00
129, -61754.98, -61181.08, -102267.07, -43332.12, -17794.96, -58216.77, -81882.71, -43582.86, -0.07, 0.80, 0.59
130, -61569.02, -60836.89, -106645.94, -51127.47, -17435.95, -57979.57, -81502.59, -43340.95, 0.00, 0.00, 0.00
131, -62385.10, -61448.43, -102599.87, -41729.68, -17901.11, -58749.01, -82034.16, -44098.16, 0.00, 0.00, 0.00
132, -62778.83, -61946.56, -97120.13, -31802.44, -18365.24, -59170.27, -82556.88, -44528.29, 0.00, 0.00, 0.00
133, -61920.97, -61339.46, -100872.46, -40818.20, -17927.26, -58375.31, -82029.70, -43742.77, 0.00, 0.00, 0.00
134, -61491.86, -60814.27, -106288.29, -51025.52, -17435.50, -57924.19, -81491.93, -43282.61, 0.00, 0.00, 0.00
135, -62201.48, -61296.46, -103588.13, -44096.88, -17775.36, -58582.36, -81905.93, -43929.07, 0.00, 0.00, 0.00
136, -62789.20, -61914.20, -97413.99, -32331.35, -18324.79, -59187.77, -82534.28, -44535.38, 0.00, 0.00, 0.00
137, -62083.11, -61477.49, -99585.06, -38373.43, -18031.29, -58545.86, -82173.73, -43909.48, 0.00, 0.00, 0.00
138, -61497.52, -60847.04, -105702.55, -50377.01, -17463.06, -57937.78, -81538.91, -43305.18, 0.00, 0.00, 0.00
139, -62073.95, -61176.99, -104474.76, -46295.31, -17664.45, -58439.06, -81790.64, -43798.13, -0.07, 0.80, 0.58
140, -62796.78, -61880.69, -98004.55, -33506.09, -18280.46, -59177.40, -82482.88, -44523.71, 0.00, 0.00, 0.00
141, -62254.55, -61628.03, -98400.45, -36105.46, -18156.46, -58722.43, -82306.88, -44077.80, 0.00, 0.00, 0.00
142, -61486.54, -60879.98, -104844.81, -49139.50, -17510.67, -57949.15, -81581.67, -43311.20, 0.00, 0.00, 0.00
143, -61898.06, -61055.62, -105108.29, -48088.91, -17578.78, -58292.81, -81685.37, -43642.50, 0.00, 0.00, 0.00
144, -62730.97, -61798.53, -98827.05, -35216.45, -18191.59, -59094.19, -82383.16, -44445.17, 0.00, 0.00, 0.00
145, -62435.35, -61748.95, -97509.68, -34301.19, -18229.46, -58859.11, -82404.55, -44225.36, 0.00, 0.00, 0.00
146, -61561.11, -60972.67, -103799.53, -47443.57, -17590.76, -58013.46, -81679.20, -43377.29, 0.00, 0.00, 0.00
147, -61765.87, -60961.41, -105546.97, -49521.34, -17498.04, -58162.05, -81595.80, -43512.39, 0.00, 0.00, 0.00
148, -62625.29, -61684.53, -99801.25, -37293.41, -18082.16, -58994.57, -82266.89, -44337.43, 0.00, 0.00, 0.00
149, -62585.91, -61853.91, -96824.11, -32913.30, -18299.24, -59006.12, -82491.99, -44362.69, -0.06, 0.79, 0.58
150, -61675.84, -61101.02, -102569.60, -45356.11, -17701.26, -58133.02, -81792.79, -43501.66, 0.00, 0.00, 0.00
151, -61672.55, -60909.39, -105702.20, -50457.92, -17462.12, -58082.66, -81554.90, -43441.95, 0.00, 0.00, 0.00
152, -62503.68, -61567.59, -100815.73, -39582.46, -17960.72, -58879.72, -82156.70, -44227.60, 0.00, 0.00, 0.00
153, -62681.89, -61904.29, -96471.06, -32157.99, -18310.82, -59093.18, -82522.46, -44448.21, 0.00, 0.00, 0.00
154, -61797.14, -61219.21, -101270.21, -43035.89, -17813.83, -58239.66, -81896.61, -43610.13, 0.00, 0.00, 0.00
155, -61578.85, -60865.54, -105649.90, -50916.98, -17470.30, -57980.18, -81496.83, -43342.91, 0.00, 0.00, 0.00
156, -62362.82, -61450.78, -101857.09, -41979.68, -17929.56, -58735.06, -82018.98, -44076.43, 0.00, 0.00, 0.00
157, -62755.96, -61937.96, -96445.34, -32071.94, -18397.54, -59150.67, -82521.85, -44501.59, 0.00, 0.00, 0.00
158, -61950.36, -61380.14, -99928.66, -40593.52, -18009.69, -58394.87, -82029.24, -43758.93, 0.00, 0.00, 0.00
159, -61510.97, -60856.76, -105282.62, -50781.64, -17539.90, -57937.38, -81482.14, -43293.11, -0.05, 0.79, 0.58
160, -62188.50, -61314.05, -102821.64, -44310.23, -17877.46, -58560.20, -81866.10, -43906.34, 0.00, 0.00, 0.00
161, -62781.91, -61932.66, -96766.91, -32675.32, -18439.00, -59160.02, -82482.77, -44510.28, 0.00, 0.00, 0.00
162, -62102.13, -61516.09, -98700.09, -38240.61, -18185.76, -58536.89, -82137.49, -43904.32, 0.00, 0.00, 0.00
163, -61500.18, -60882.71, -104718.97, -50133.13, -17648.06, -57921.68, -81510.48, -43287.77, 0.00, 0.00, 0.00
164, -62062.99, -61211.97, -103666.18, -46436.98, -17857.68, -58419.39, -81762.39, -43775.67, 0.00, 0.00, 0.00
165, -62781.04, -61889.05, -97369.80, -33881.62, -18450.45, -59132.63, -82423.10, -44487.05, 0.00, 0.00, 0.00
166, -62280.79, -61656.26, -97580.54, -36056.76, -18339.63, -58705.83, -82264.63, -44069.39, 0.00, 0.00, 0.00
167, -61545.62, -60951.35, -103852.23, -48876.47, -17740.96, -57970.10, -81576.29, -43338.18, 0.00, 0.00, 0.00
168, -61914.71, -61100.08, -104279.84, -48212.09, -17796.84, -58286.64, -81649.51, -43640.91, 0.00, 0.00, 0.00
169, -62729.25, -61822.38, -98181.13, -35584.36, -18387.91, -59078.39, -82327.77, -44430.15, -0.04, 0.80, 0.58
170, -62483.05, -61804.94, -96680.84, -34266.56, -18459.10, -58882.59, -82379.23, -44250.15, 0.00, 0.00, 0.00
171, -61605.14, -61040.85, -102811.47, -47201.68, -17843.58, -58046.56, -81667.82, -43412.18, 0.00, 0.00, 0.00
172, -61773.58, -61002.18, -104697.73, -49608.93, -17730.21, -58157.67, -81559.66, -43515.07, 0.00, 0.00, 0.00
173, -62625.74, -61701.03, -99128.22, -37653.21, -18301.29, -58973.42, -82211.70, -44325.54, 0.00, 0.00, 0.00
174, -62595.25, -61874.34, -96038.63, -32963.99, -18518.64, -58993.40, -82432.00, -44353.30, 0.00, 0.00, 0.00
175, -61692.22, -61135.95, -101610.65, -45136.46, -17934.50, -58130.92, -81745.34, -43494.17, 0.00, 0.00, 0.00
176, -61670.09, -60936.60, -104850.98, -50517.78, -17691.79, -58058.36, -81492.36, -43415.27, 0.00, 0.00, 0.00
177, -62499.97, -61582.34, -100164.40, -39961.25, -18196.17, -58848.50, -82084.03, -44191.45, 0.00, 0.00, 0.00
178, -62695.41, -61931.47, -95741.34, -32293.46, -18548.21, -59095.21, -82474.11, -44436.70, 0.00, 0.00, 0.00
179, -61818.02, -61266.51, -100330.07, -42837.61, -18038.35, -58270.59, -81877.66, -43621.04, -0.05, 0.80, 0.57
180, -61578.50, -60890.20, -104756.30, -50911.95, -17652.16, -57991.09, -81466.36, -43335.76, 0.00, 0.00, 0.00
181, -62330.83, -61434.19, -101191.64, -42332.08, -18059.45, -58698.94, -81945.72, -44032.27, 0.00, 0.00, 0.00
182, -62757.10, -61944.62, -95781.96, -32280.81, -18523.34, -59149.93, -82475.14, -44491.70, 0.00, 0.00, 0.00
183, -61972.00, -61402.61, -99059.44, -40437.46, -18129.32, -58421.07, -82009.33, -43779.49, 0.00, 0.00, 0.00
184, -61536.41, -60873.86, -104406.47, -50741.07, -17635.55, -57957.76, -81476.71, -43315.85, 0.00, 0.00, 0.00
185, -62186.13, -61308.06, -102124.47, -44595.77, -17935.60, -58557.79, -81830.34, -43906.69, 0.00, 0.00, 0.00
186, -62768.37, -61919.54, -96125.46, -32913.66, -18472.08, -59158.83, -82435.51, -44507.38, 0.00, 0.00, 0.00
187, -62108.81, -61517.27, -97843.75, -38077.40, -18202.57, -58567.47, -82120.35, -43929.13, 0.00, 0.00, 0.00
188, -61507.75, -60888.52, -103788.35, -49992.11, -17640.76, -57957.91, -81496.85, -43316.92, 0.00, 0.00, 0.00
189, -62024.10, -61184.07, -102918.13, -46645.45, -17815.81, -58413.98, -81700.18, -43763.42, 0.00, 0.00, 0.00
190, -62753.17, -61870.99, -96745.86, -34140.77, -18401.32, -59135.92, -82363.25, -44481.29, -0.06, 0.81, 0.56
191, -62293.82, -61668.39, -96764.79, -35929.60, -18306.82, -58740.98, -82237.88, -44096.97, 0.00, 0.00, 0.00
192, -61536.90, -60945.89, -102953.12, -48741.96, -17689.04, -57987.17, -81543.48, -43343.77, 0.00, 0.00, 0.00
193, -61879.66, -61065.70, -103549.08, -48398.21, -17701.64, -58267.96, -81589.70, -43611.98, 0.00, 0.00, 0.00
194, -62680.55, -61778.05, -97575.66, -35850.23, -18285.87, -59059.03, -82266.51, -44394.74, 0.00, 0.00, 0.00
195, -62436.45, -61775.73, -95912.34, -34156.84, -18361.89, -58885.78, -82336.98, -44226.43, 0.00, 0.00, 0.00
196, -61600.54, -61036.49, -101908.48, -46999.26, -17764.99, -58068.96, -81646.29, -43415.91, 0.00, 0.00, 0.00
197, -61752.53, -60984.99, -103901.03, -49691.14, -17645.52, -58162.23, -81527.47, -43499.53, 0.00, 0.00, 0.00
198, -62579.38, -61669.42, -98517.30, -37911.26, -18187.41, -58957.82, -82159.58, -44289.13, 0.00, 0.00, 0.00
199, -62574.73, -61855.30, -95330.88, -32905.28, -18405.39, -59005.65, -82393.38, -44349.97, 0.00, 0.00, 0.00
200, -61699.69, -61142.93, -100729.92, -44900.85, -17837.65, -58168.45, -81734.34, -43521.95, -0.07, 0.82, 0.55
201, -61648.50, -60924.24, -104055.34, -50544.76, -17584.27, -58074.88, -81465.27, -43419.47, 0.00, 0.00, 0.00
202, -62470.75, -61558.73, -99532.13, -40186.36, -18073.98, -58847.43, -82035.57, -44187.92, 0.00, 0.00, 0.00
203, -62700.62, -61926.42, -95060.02, -32267.85, -18429.53, -59118.48, -82433.84, -44465.38, 0.00, 0.00, 0.00
204, -61841.06, -61276.25, -99458.30, -42554.84, -17933.72, -58319.43, -81855.55, -43674.50, 0.00, 0.00, 0.00
205, -61568.26, -60871.66, -103937.64, -50861.64, -17546.74, -58027.21, -81433.66, -43366.92, 0.00, 0.00, 0.00
206, -62311.05, -61413.90, -100556.49, -42546.23, -17947.47, -58719.84, -81900.34, -44047.66, 0.00, 0.00, 0.00
207, -62751.02, -61926.73, -95154.46, -32331.30, -18414.51, -59177.56, -82425.79, -44515.09, 0.00, 0.00, 0.00
208, -61991.06, -61408.04, -98210.73, -40146.88, -18052.95, -58476.16, -81986.73, -43824.66, 0.00, 0.00, 0.00
209, -61543.00, -60884.61, -103563.43, -50617.98, -17568.11, -58001.12, -81444.93, -43342.91, 0.00, 0.00, 0.00
210, -62177.95, -61304.42, -101461.49, -44769.25, -17858.15, -58576.01, -81778.50, -43908.35, -0.07, 0.83, 0.54
211, -62779.57, -61923.07, -95513.34, -33005.84, -18400.07, -59183.44, -82388.70, -44515.82, 0.00, 0.00, 0.00
212, -62143.28, -61555.50, -97012.27, -37794.36, -18172.84, -58621.85, -82106.72, -43963.62, 0.00, 0.00, 0.00
213, -61504.29, -60899.92, -102920.99, -49806.30, -17603.56, -57981.81, -81466.67, -43317.50, 0.00, 0.00, 0.00
214, -61990.91, -61164.79, -102233.32, -46783.00, -17750.10, -58407.52, -81652.46, -43731.43, 0.00, 0.00, 0.00
215, -62721.43, -61849.42, -96165.34, -34294.53, -18325.79, -59127.89, -82312.58, -44450.22, 0.00, 0.00, 0.00
216, -62295.25, -61669.49, -96007.78, -35713.21, -18257.84, -58762.13, -82210.80, -44097.60, 0.00, 0.00, 0.00
217, -61548.68, -60965.21, -102092.35, -48504.98, -17662.21, -58022.94, -81534.98, -43360.39, 0.00, 0.00, 0.00
218, -61856.51, -61072.88, -102823.99, -48476.95, -17676.88, -58285.14, -81569.13, -43611.00, 0.00, 0.00, 0.00
219, -62650.53, -61767.90, -97003.20, -36049.43, -18252.81, -59066.18, -82231.51, -44384.26, 0.00, 0.00, 0.00
220, -62455.67, -61795.08, -95183.20, -33998.16, -18346.96, -58922.97, -82320.22, -44257.57, -0.08, 0.84, 0.55
221, -61607.29, -61051.98, -101053.15, -46740.80, -17740.11, -58093.50, -81622.47, -43434.11, 0.00, 0.00, 0.00
222, -61736.21, -60991.18, -103176.92, -49749.08, -17618.56, -58172.56, -81496.96, -43502.04, 0.00, 0.00, 0.00
223, -62554.35, -61667.54, -97959.45, -38152.55, -18162.56, -58961.78, -82119.48, -44281.29, 0.00, 0.00, 0.00
224, -62576.70, -61870.90, -94665.96, -32855.32, -18398.64, -59032.00, -82381.89, -44362.45, 0.00, 0.00, 0.00
225, -61713.57, -61169.21, -99869.16, -44624.86, -17844.11, -58201.57, -81740.57, -43542.58, 0.00, 0.00, 0.00
226, -61646.55, -60936.53, -103292.08, -50553.03, -17580.59, -58089.10, -81456.88, -43421.55, 0.00, 0.00, 0.00
227, -62435.42, -61549.57, -98982.71, -40465.55, -18052.83, -58835.80, -82001.55, -44159.13, 0.00, 0.00, 0.00
228, -62678.69, -61926.45, -94446.66, -32308.42, -18423.13, -59125.08, -82420.16, -44451.49, 0.00, 0.00, 0.00
229, -61845.35, -61293.33, -98580.58, -42257.20, -17963.69, -58346.16, -81872.20, -43678.35, 0.00, 0.00, 0.00
230, -61560.41, -60892.77, -103092.66, -50777.82, -17564.54, -58027.79, -81433.73, -43351.07, -0.08, 0.83, 0.55
231, -62280.09, -61415.30, -99931.45, -42784.39, -17940.96, -58688.68, -81871.33, -44004.55, 0.00, 0.00, 0.00
232, -62729.23, -61930.51, -94549.38, -32444.43, -18406.55, -59154.94, -82405.72, -44476.59, 0.00, 0.00, 0.00
233, -61989.12, -61428.56, -97311.42, -39810.22, -18049.88, -58472.14, -81987.96, -43809.46, 0.00, 0.00, 0.00
234, -61524.89, -60901.26, -102622.60, -50387.18, -17575.82, -57988.49, -81445.30, -43326.31, 0.00, 0.00, 0.00
235, -62101.44, -61282.87, -100815.62, -45009.73, -17845.48, -58528.04, -81753.49, -43848.73, 0.00, 0.00, 0.00
236, -62694.00, -61878.50, -95051.84, -33346.77, -18370.25, -59138.36, -82358.04, -44451.41, 0.00, 0.00, 0.00
237, -62145.47, -61566.58, -96151.10, -37504.30, -18168.14, -58647.85, -82137.72, -43975.13, 0.00, 0.00, 0.00
238, -61522.41, -60938.05, -101821.52, -49354.57, -17612.86, -58010.73, -81517.79, -43341.13, 0.00, 0.00, 0.00
239, -61953.85, -61161.21, -101474.73, -46924.07, -17738.79, -58379.78, -81660.95, -43702.51, 0.00, 0.00, 0.00
240, -62651.04, -61803.40, -95849.82, -34912.17, -18286.43, -59069.76, -82290.85, -44391.14, -0.07, 0.81, 0.56
241, -62305.57, -61677.89, -95203.14, -35516.23, -18251.85, -58788.50, -82249.23, -44121.25, 0.00, 0.00, 0.00
242, -61611.11, -61038.79, -100404.46, -47276.38, -17714.96, -58101.37, -81638.72, -43436.59, 0.00, 0.00, 0.00
243, -61845.24, -61104.13, -101343.74, -47774.71, -17696.99, -58280.20, -81614.87, -43606.33, 0.00, 0.00, 0.00
244, -62458.42, -61651.74, -97281.23, -37617.61, -18140.14, -58875.97, -82117.63, -44199.28, 0.00, 0.00, 0.00
245, -62324.51, -61664.57, -96027.72, -35928.59, -18204.09, -58790.59, -82218.41, -44122.66, 0.00, 0.00, 0.00
246, -61729.53, -61127.06, -99927.96, -45987.39, -17766.19, -58207.65, -81734.98, -43544.71, 0.00, 0.00, 0.00
247, -61841.75, -61105.96, -101312.99, -48313.92, -17697.78, -58260.51, -81617.68, -43598.89, 0.00, 0.00, 0.00
248, -62439.42, -61617.95, -97692.37, -38922.97, -18109.72, -58828.34, -82056.80, -44163.47, 0.00, 0.00, 0.00
249, -62424.93, -61731.47, -95510.72, -34759.55, -18254.91, -58866.09, -82252.98, -44199.25, 0.00, 0.00, 0.00
250, -61792.80, -61212.53, -98974.51, -44083.38, -17847.40, -58278.89, -81817.89, -43610.15, -0.05, 0.82, 0.56
251, -61743.20, -61057.34, -101252.86, -48796.00, -17668.58, -58193.30, -81599.71, -43516.32, 0.00, 0.00, 0.00
252, -62332.64, -61531.13, -98252.95, -40623.55, -18035.67, -58734.77, -81985.97, -44057.59, 0.00, 0.00, 0.00
253, -62500.80, -61781.74, -95250.88, -34219.11, -18287.55, -58930.02, -82293.69, -44262.98, 0.00, 0.00, 0.00
254, -61891.87, -61305.85, -98067.83, -42163.23, -17923.01, -58365.90, -81924.15, -43702.60, 0.00, 0.00, 0.00
255, -61698.66, -61036.53, -101104.09, -48965.12, -17647.17, -58132.50, -81602.62, -43470.92, 0.00, 0.00, 0.00
0, -62238.63, -61442.08, -98861.90, -42443.91, -17940.61, -58613.63, -81912.10, -43954.05, 0.00, 0.00, 0.00
1, -62565.68, -61815.87, -95244.78, -34262.16, -18283.99, -58958.56, -82312.33, -44300.24, 0.00, 0.00, 0.00
2, -62031.34, -61434.30, -97155.36, -40212.66, -18009.65, -58477.17, -82039.98, -43824.10, 0.00, 0.00, 0.00
3, -61672.04, -61034.97, -100770.22, -48693.77, -17647.30, -58104.27, -81625.23, -43448.04, 0.00, 0.00, 0.00
4, -62100.27, -61330.48, -99420.16, -44203.16, -17859.38, -58491.81, -81817.59, -43826.11, -0.03, 0.81, 0.56
5, -62535.17, -61775.01, -95465.77, -34840.04, -18249.55, -58931.54, -82254.64, -44266.29, 0.00, 0.00, 0.00
6, -62108.34, -61508.36, -96368.63, -38402.46, -18070.54, -58558.15, -82098.23, -43901.11, 0.00, 0.00, 0.00
7, -61665.87, -61051.82, -100299.59, -48008.21, -17674.19, -58107.45, -81648.93, -43451.72, 0.00, 0.00, 0.00
8, -62018.73, -61256.47, -99884.16, -45793.47, -17790.04, -58405.29, -81754.12, -43749.54, 0.00, 0.00, 0.00
9, -62534.66, -61743.88, -95843.47, -35877.48, -18200.29, -58912.07, -82206.96, -44258.93, 0.00, 0.00, 0.00
10, -62236.98, -61598.99, -95656.32, -36783.91, -18140.07, -58673.80, -82174.30, -44023.41, 0.00, 0.00, 0.00
11, -61702.17, -61096.03, -99666.91, -46915.04, -17717.42, -58147.73, -81707.60, -43498.75, 0.00, 0.00, 0.00
12, -61930.47, -61187.72, -100220.77, -47122.97, -17735.95, -58320.89, -81698.02, -43669.83, 0.00, 0.00, 0.00
13, -62500.32, -61700.82, -96352.82, -37291.14, -18145.64, -58864.57, -82155.27, -44218.45, 0.00, 0.00, 0.00
14, -62351.17, -61690.23, -95110.05, -35501.54, -18187.19, -58773.22, -82247.84, -44131.51, -0.04, 0.81, 0.57
15, -61756.88, -61157.81, -98937.18, -45490.65, -17750.26, -58200.57, -81775.69, -43564.91, 0.00, 0.00, 0.00
16, -61826.84, -61110.16, -100439.23, -48138.44, -17661.25, -58233.87, -81649.40, -43590.19, 0.00, 0.00, 0.00
17, -62407.79, -61601.74, -96967.79, -38975.68, -18052.88, -58780.64, -82068.36, -44134.30, 0.00, 0.00, 0.00
18, -62434.57, -61739.92, -94743.84, -34621.67, -18214.37, -58849.44, -82281.33, -44210.30, 0.00, 0.00, 0.00
19, -61801.95, -61221.92, -98120.22, -43803.50, -17813.36, -58265.32, -81855.33, -43629.46, 0.00, 0.00, 0.00
20, -61723.25, -61040.27, -100489.51, -48755.10, -17623.43, -58153.67, -81619.43, -43510.15, 0.00, 0.00, 0.00
21, -62293.93, -61498.74, -97630.90, -40812.99, -17975.14, -58683.52, -81988.84, -44033.52, 0.00, 0.00, 0.00
22, -62484.50, -61766.79, -94595.41, -34230.71, -18246.49, -58907.91, -82305.45, -44258.64, 0.00, 0.00, 0.00
23, -61908.79, -61321.88, -97247.09, -41912.52, -17917.74, -58380.32, -81959.24, -43736.30, 0.00, 0.00, 0.00
24, -61701.12, -61042.70, -100305.30, -48879.80, -17636.67, -58142.56, -81639.23, -43498.66, -0.06, 0.80, 0.57
25, -62195.85, -61409.07, -98213.72, -42630.00, -17909.71, -58596.15, -81907.48, -43944.18, 0.00, 0.00, 0.00
26, -62522.41, -61777.05, -94603.55, -34332.79, -18250.02, -58944.92, -82301.89, -44292.73, 0.00, 0.00, 0.00
27, -62001.52, -61406.54, -96388.03, -40020.13, -17983.70, -58481.86, -82049.83, -43836.26, 0.00, 0.00, 0.00
28, -61653.38, -61019.97, -99993.63, -48601.32, -17635.82, -58122.71, -81647.81, -43473.05, 0.00, 0.00, 0.00
29, -62088.63, -61312.96, -98769.94, -44382.25, -17831.66, -58501.64, -81824.46, -43846.23, 0.00, 0.00, 0.00
30, -62537.90, -61762.43, -94853.80, -34974.49, -18219.00, -58948.30, -82261.21, -44296.06, 0.00, 0.00, 0.00
31, -62120.55, -61509.76, -95623.04, -38231.56, -18060.92, -58593.78, -82120.33, -43951.69, 0.00, 0.00, 0.00
32, -61658.43, -61053.74, -99506.43, -47862.06, -17666.30, -58140.37, -81676.94, -43494.91, 0.00, 0.00, 0.00
33, -61984.00, -61237.00, -99210.61, -45924.45, -17773.32, -58414.18, -81745.89, -43763.57, 0.00, 0.00, 0.00
34, -62500.71, -61717.43, -95245.72, -36042.59, -18182.58, -58913.83, -82190.87, -44263.52, -0.07, 0.81, 0.56
35, -62227.48, -61594.39, -94945.80, -36640.86, -18142.37, -58693.91, -82181.02, -44048.25, 0.00, 0.00, 0.00
36, -61677.38, -61079.96, -98915.41, -46751.40, -17708.64, -58159.17, -81712.66, -43511.76, 0.00, 0.00, 0.00
37, -61885.30, -61158.55, -99585.60, -47235.70, -17713.60, -58316.04, -81687.60, -43660.84, 0.00, 0.00, 0.00
38, -62449.34, -61662.71, -95806.52, -37501.67, -18120.00, -58855.29, -82121.45, -44200.04, 0.00, 0.00, 0.00
39, -62334.43, -61675.48, -94446.58, -35409.66, -18189.49, -58792.73, -82226.61, -44144.43, 0.00, 0.00, 0.00
40, -61747.63, -61164.79, -98168.61, -45273.81, -17770.35, -58229.45, -81777.79, -43584.00, 0.00, 0.00, 0.00
41, -61820.14, -61116.89, -99748.37, -48168.41, -17667.80, -58247.35, -81638.38, -43601.82, 0.00, 0.00, 0.00
42, -62399.27, -61606.93, -96381.14, -39177.51, -18054.26, -58797.76, -82052.60, -44148.54, 0.00, 0.00, 0.00
43, -62434.52, -61756.91, -94067.70, -34571.57, -18236.34, -58887.43, -82273.84, -44236.20, 0.00, 0.00, 0.00
44, -61817.91, -61241.41, -97337.62, -43556.26, -17838.03, -58312.55, -81850.23, -43662.93, -0.07, 0.82, 0.55
45, -61733.59, -61061.48, -99767.05, -48720.70, -17636.62, -58195.83, -81603.40, -43539.05, 0.00, 0.00, 0.00
46, -62287.31, -61512.58, -97017.37, -41003.13, -17980.05, -58716.78, -81956.29, -44049.09, 0.00, 0.00, 0.00
47, -62485.21, -61783.15, -93953.07, -34258.50, -18244.48, -58935.51, -82269.52, -44270.73, 0.00, 0.00, 0.00
48, -61922.13, -61349.66, -96505.27, -41710.05, -17916.31, -58401.69, -81930.14, -43753.67, 0.00, 0.00, 0.00
49, -61686.95, -61052.31, -99611.33, -48833.66, -17625.82, -58141.78, -81589.14, -43491.78, 0.00, 0.00, 0.00
50, -62178.89, -61418.84, -97628.91, -42829.00, -17892.26, -58593.73, -81854.12, -43932.96, 0.00, 0.00, 0.00
51, -62521.61, -61794.23, -94018.05, -34444.77, -18230.02, -58946.55, -82246.13, -44290.89, 0.00, 0.00, 0.00
52, -62018.27, -61440.03, -95692.27, -39846.59, -17978.31, -58490.42, -82000.88, -43845.09, 0.00, 0.00, 0.00
53, -61664.08, -61053.09, -99306.31, -48506.39, -17627.08, -58123.16, -81595.98, -43474.41, 0.00, 0.00, 0.00
54, -62089.66, -61333.59, -98203.66, -44563.88, -17809.15, -58488.84, -81765.80, -43837.22, -0.05, 0.82, 0.56
55, -62541.74, -61789.14, -94290.18, -35129.25, -18214.91, -58949.28, -82213.60, -44293.76, 0.00, 0.00, 0.00
56, -62135.48, -61546.71, -94906.60, -38054.09, -18067.81, -58613.52, -82091.25, -43959.42, 0.00, 0.00, 0.00
57, -61672.80, -61082.42, -98803.60, -47722.11, -17650.32, -58140.33, -81641.17, -43491.75, 0.00, 0.00, 0.00
58, -61983.04, -61251.87, -98618.93, -46053.96, -17745.74, -58400.14, -81708.12, -43743.14, 0.00, 0.00, 0.00
59, -62494.47, -61733.71, -94677.49, -36218.86, -18160.88, -58912.18, -82157.97, -44249.81, 0.00, 0.00, 0.00
60, -62241.54, -61625.77, -94245.52, -36508.15, -18130.75, -58712.09, -82155.91, -44055.60, 0.00, 0.00, 0.00
61, -61700.94, -61125.00, -98131.62, -46527.86, -17710.27, -58180.05, -81699.22, -43528.88, 0.00, 0.00, 0.00
62, -61882.79, -61178.67, -98902.53, -47278.54, -17691.05, -58306.31, -81649.09, -43653.49, 0.00, 0.00, 0.00
63, -62439.93, -61671.66, -95202.76, -37679.32, -18093.13, -58840.38, -82074.46, -44182.45, 0.00, 0.00, 0.00
64, -62337.67, -61700.54, -93742.23, -35313.97, -18184.48, -58791.70, -82205.34, -44135.17, -0.04, 0.82, 0.56
65, -61754.98, -61199.01, -97383.80, -45041.47, -17776.19, -58232.53, -81764.31, -43577.25, 0.00, 0.00, 0.00
66, -61782.36, -61107.57, -99067.94, -48180.21, -17641.36, -58212.55, -81589.50, -43553.94, 0.00, 0.00, 0.00
67, -62355.17, -61590.21, -95802.86, -39369.73, -18013.72, -58752.59, -81986.22, -44091.07, 0.00, 0.00, 0.00
68, -62410.05, -61761.38, -93433.93, -34553.70, -18196.24, -58851.47, -82218.68, -44193.29, 0.00, 0.00, 0.00
69, -61820.48, -61267.22, -96609.40, -43352.01, -17819.12, -58296.79, -81823.90, -43646.05, 0.00, 0.00, 0.00
70, -61737.01, -61074.84, -99069.08, -48675.88, -17624.19, -58172.40, -81581.05, -43521.64, 0.00, 0.00, 0.00
71, -62293.89, -61520.89, -96389.80, -41136.86, -17959.45, -58682.76, -81925.42, -44030.50, 0.00, 0.00, 0.00
72, -62496.75, -61792.82, -93279.41, -34244.50, -18224.00, -58920.96, -82246.41, -44267.18, 0.00, 0.00, 0.00
73, -61928.75, -61365.66, -95731.20, -41466.89, -17902.49, -58401.46, -81914.83, -43748.00, 0.00, 0.00, 0.00
74, -61686.16, -61058.95, -98891.65, -48740.86, -17604.23, -58129.82, -81567.70, -43474.32, -0.03, 0.82, 0.56
75, -62185.66, -61430.28, -96991.84, -42950.42, -17874.33, -58580.39, -81829.63, -43922.11, 0.00, 0.00, 0.00
76, -62528.60, -61802.50, -93359.12, -34472.63, -18213.10, -58938.80, -82220.02, -44281.69, 0.00, 0.00, 0.00
77, -62049.49, -61465.86, -94911.31, -39605.55, -17968.32, -58506.05, -81990.80, -43858.93, 0.00, 0.00, 0.00
78, -61686.66, -61075.56, -98526.09, -48343.96, -17610.02, -58130.38, -81585.07, -43483.17, 0.00, 0.00, 0.00
79, -62073.99, -61342.80, -97508.37, -44638.20, -17797.24, -58483.67, -81750.09, -43821.35, 0.00, 0.00, 0.00
80, -62522.05, -61794.52, -93623.20, -35194.86, -18188.84, -58932.90, -82177.95, -44268.68, 0.00, 0.00, 0.00
81, -62156.31, -61565.11, -94138.64, -37850.42, -18060.25, -58622.72, -82077.21, -43965.46, 0.00, 0.00, 0.00
82, -61672.04, -61082.53, -98011.81, -47531.56, -17639.62, -58139.84, -81619.16, -43483.21, 0.00, 0.00, 0.00
83, -61970.01, -61252.41, -97929.63, -46120.01, -17720.48, -58382.80, -81667.26, -43723.27, 0.00, 0.00, 0.00
84, -62503.03, -61754.65, -94022.30, -36319.73, -18140.83, -58912.34, -82128.11, -44247.76, 0.00, 0.00, 0.00
85, -62249.52, -61648.05, -93496.47, -36338.37, -18105.31, -58715.30, -82134.86, -44056.52, -0.03, 0.82, 0.55
86, -61706.59, -61135.02, -97365.49, -46333.53, -17685.75, -58179.44, -81671.35, -43527.43, 0.00, 0.00, 0.00
87, -61877.63, -61175.80, -98222.81, -47328.77, -17666.75, -58300.34, -81604.70, -43645.31, 0.00, 0.00, 0.00
88, -62456.94, -61682.03, -94564.44, -37809.07, -18072.46, -58844.72, -82038.43, -44189.75, 0.00, 0.00, 0.00
89, -62384.88, -61749.78, -93023.29, -35195.88, -18159.18, -58810.61, -82180.74, -44163.56, 0.00, 0.00, 0.00
90, -61764.06, -61202.23, -96640.09, -44839.83, -17737.96, -58235.88, -81731.25, -43581.52, 0.00, 0.00, 0.00
91, -61780.02, -61111.16, -98386.20, -48189.96, -17617.42, -58226.34, -81572.38, -43560.80, 0.00, 0.00, 0.00
92, -62359.96, -61597.18, -95172.70, -39501.66, -17993.36, -58762.58, -81955.57, -44097.73, 0.00, 0.00, 0.00
93, -62438.30, -61778.99, -92713.80, -34457.70, -18188.93, -58879.16, -82200.35, -44215.04, 0.00, 0.00, 0.00
94, -61847.66, -61295.72, -95790.97, -43069.95, -17817.74, -58327.32, -81814.94, -43662.61, 0.00, 0.00, 0.00
95, -61731.07, -61088.93, -98346.69, -48644.99, -17600.93, -58170.50, -81546.96, -43506.82, -0.03, 0.83, 0.56
96, -62277.59, -61515.13, -95791.33, -41341.45, -17918.07, -58661.70, -81872.13, -44000.79, 0.00, 0.00, 0.00
97, -62512.11, -61819.29, -92611.88, -34245.26, -18204.06, -58917.05, -82207.19, -44262.29, 0.00, 0.00, 0.00
98, -61947.61, -61398.99, -94938.80, -41221.84, -17902.14, -58420.24, -81902.84, -43762.39, 0.00, 0.00, 0.00
99, -61683.64, -61070.82, -98149.44, -48675.37, -17584.99, -58131.72, -81545.82, -43471.88, 0.00, 0.00, 0.00
100, -62175.89, -61443.02, -96364.29, -43113.52, -17841.47, -58574.09, -81798.48, -43907.52, 0.00, 0.00, 0.00
101, -62524.13, -61820.43, -92685.17, -34501.39, -18194.03, -58945.21, -82188.75, -44278.18, 0.00, 0.00, 0.00
102, -62034.80, -61480.71, -94116.20, -39390.39, -17968.61, -58513.89, -81971.13, -43850.21, 0.00, 0.00, 0.00
103, -61653.91, -61071.02, -97776.88, -48271.16, -17593.82, -58109.57, -81553.49, -43449.15, 0.00, 0.00, 0.00
104, -62046.85, -61328.49, -96860.09, -44781.07, -17759.73, -58450.64, -81705.23, -43789.41, 0.00, 0.00, 0.00
105, -62524.44, -61792.00, -92954.82, -35265.44, -18161.53, -58921.12, -82151.62, -44267.27, -0.03, 0.82, 0.55
106, -62166.75, -61589.47, -93366.79, -37669.80, -18041.25, -58622.21, -82058.44, -43974.02, 0.00, 0.00, 0.00
107, -61658.85, -61089.57, -97260.28, -47431.65, -17612.68, -58124.97, -81593.38, -43475.15, 0.00, 0.00, 0.00
108, -61955.26, -61252.00, -97283.73, -46268.80, -17688.66, -58359.93, -81641.89, -43707.92, 0.00, 0.00, 0.00
109, -62502.89, -61752.68, -93391.27, -36455.96, -18108.09, -58882.52, -82090.06, -44230.52, 0.00, 0.00, 0.00
110, -62271.33, -61675.93, -92759.40, -36199.14, -18082.49, -58706.23, -82114.59, -44059.89, 0.00, 0.00, 0.00
111, -61690.12, -61137.54, -96626.86, -46216.03, -17653.61, -58160.04, -81647.16, -43508.25, 0.00, 0.00, 0.00
112, -61849.67, -61181.95, -97574.32, -47451.95, -17638.37, -58271.60, -81586.86, -43613.08, 0.00, 0.00, 0.00
113, -62421.56, -61675.86, -93938.81, -37965.22, -18057.10, -58820.60, -82019.39, -44157.46, 0.00, 0.00, 0.00
114, -62355.55, -61731.76, -92287.00, -35074.56, -18156.12, -58812.80, -82176.66, -44149.70, 0.00, 0.00, 0.00
115, -61754.00, -61217.18, -95854.54, -44675.79, -17740.94, -58242.07, -81734.16, -43584.92, -0.02, 0.82, 0.56
116, -61775.39, -61129.88, -97694.91, -48270.29, -17613.29, -58211.96, -81563.32, -43555.79, 0.00, 0.00, 0.00
117, -62348.20, -61607.02, -94543.54, -39683.93, -17978.65, -58745.72, -81952.06, -44089.24, 0.00, 0.00, 0.00
118, -62444.31, -61803.51, -92011.83, -34396.11, -18176.48, -58875.59, -82200.80, -44223.42, 0.00, 0.00, 0.00
119, -61840.01, -61304.39, -95034.95, -42902.72, -17807.46, -58322.83, -81816.97, -43667.71, 0.00, 0.00, 0.00
120, -61696.98, -61084.03, -97677.27, -48695.20, -17575.33, -58154.34, -81535.79, -43489.34, 0.00, 0.00, 0.00
121, -62253.59, -61514.17, -95173.05, -41506.45, -17902.92, -58660.77, -81866.81, -43994.24, 0.00, 0.00, 0.00
122, -62503.93, -61818.71, -91939.67, -34221.17, -18189.18, -58929.30, -82207.73, -44270.13, 0.00, 0.00, 0.00
123, -61938.74, -61395.16, -94217.72, -41060.64, -17878.27, -58417.13, -81891.67, -43765.03, 0.00, 0.00, 0.00
124, -61660.32, -61064.05, -97472.49, -48677.02, -17572.79, -58126.87, -81537.98, -43472.13, 0.00, 0.00, 0.00
125, -62160.60, -61426.41, -95744.16, -43276.46, -17828.78, -58566.62, -81785.90, -43910.89, -0.02, 0.82, 0.56
126, -62536.31, -61830.60, -92031.52, -34522.40, -18185.54, -58955.23, -82195.84, -44297.22, 0.00, 0.00, 0.00
127, -62051.57, -61523.46, -93367.26, -39172.10, -17975.72, -58540.09, -81995.80, -43875.78, 0.00, 0.00, 0.00
128, -61655.16, -61107.19, -97068.66, -48201.20, -17598.18, -58126.87, -81570.88, -43463.46, 0.00, 0.00, 0.00
129, -62037.91, -61315.39, -96245.18, -44943.16, -17753.36, -58453.95, -81708.16, -43790.02, 0.00, 0.00, 0.00
130, -62505.62, -61786.28, -92344.06, -35355.79, -18148.54, -58923.64, -82142.34, -44256.14, 0.00, 0.00, 0.00
131, -62158.46, -61590.95, -92633.74, -37459.24, -18033.63, -58632.56, -82064.43, -43974.06, 0.00, 0.00, 0.00
132, -61681.71, -61126.81, -96528.82, -47294.52, -17626.16, -58151.88, -81620.14, -43498.32, 0.00, 0.00, 0.00
133, -61942.38, -61272.63, -96647.66, -46387.04, -17693.91, -58370.39, -81651.45, -43707.70, 0.00, 0.00, 0.00
134, -62457.19, -61729.28, -92789.82, -36575.52, -18096.26, -58875.27, -82084.14, -44206.27, 0.00, 0.00, 0.00
135, -62263.60, -61682.92, -92027.34, -36008.52, -18090.41, -58735.06, -82136.63, -44072.03, -0.03, 0.82, 0.56
136, -61702.41, -61176.70, -95869.63, -46033.13, -17662.73, -58186.33, -81676.00, -43527.56, 0.00, 0.00, 0.00
137, -61847.59, -61182.11, -96922.15, -47539.61, -17642.48, -58272.20, -81589.88, -43611.25, 0.00, 0.00, 0.00
138, -62387.11, -61648.07, -93342.54, -38114.64, -18049.99, -58805.23, -82006.55, -44131.93, 0.00, 0.00, 0.00
139, -62337.20, -61736.99, -91585.53, -34944.14, -18164.21, -58812.51, -82178.11, -44139.89, 0.00, 0.00, 0.00
140, -61755.43, -61239.33, -95096.77, -44468.77, -17757.54, -58255.08, -81764.55, -43588.11, 0.00, 0.00, 0.00
141, -61752.88, -61122.70, -97033.23, -48331.29, -17622.74, -58203.14, -81560.75, -43535.99, 0.00, 0.00, 0.00
142, -62320.48, -61595.50, -93949.63, -39856.94, -17992.91, -58734.04, -81938.36, -44062.42, 0.00, 0.00, 0.00
143, -62428.06, -61796.52, -91336.09, -34327.16, -18204.58, -58875.86, -82207.27, -44209.22, 0.00, 0.00, 0.00
144, -61837.82, -61314.41, -94286.30, -42709.27, -17839.29, -58330.59, -81832.75, -43667.77, 0.00, 0.00, 0.00
145, -61697.65, -61097.73, -96989.98, -48721.21, -17602.54, -58151.88, -81541.02, -43489.14, -0.03, 0.81, 0.56
146, -62242.16, -61514.01, -94568.77, -41683.99, -17912.42, -58648.14, -81855.86, -43986.38, 0.00, 0.00, 0.00
147, -62500.17, -61813.55, -91247.24, -34174.59, -18214.64, -58933.88, -82204.84, -44274.98, 0.00, 0.00, 0.00
148, -61937.55, -61408.64, -93420.81, -40813.10, -17916.04, -58428.00, -81897.19, -43770.32, 0.00, 0.00, 0.00
149, -61655.92, -61080.59, -96746.21, -48641.69, -17599.65, -58125.29, -81533.23, -43460.11, 0.00, 0.00, 0.00
150, -62128.82, -61424.18, -95132.87, -43461.49, -17835.06, -58545.39, -81762.03, -43877.75, 0.00, 0.00, 0.00
151, -62514.95, -61833.13, -91393.40, -34570.57, -18193.78, -58942.93, -82168.01, -44279.59, 0.00, 0.00, 0.00
152, -62040.50, -61528.89, -92630.59, -38983.81, -17971.90, -58530.68, -81969.32, -43871.02, 0.00, 0.00, 0.00
153, -61627.42, -61073.61, -96364.85, -48142.35, -17600.23, -58122.29, -81545.73, -43449.09, 0.00, 0.00, 0.00
154, -62009.32, -61314.77, -95635.16, -45111.70, -17761.61, -58454.82, -81675.64, -43771.78, 0.00, 0.00, 0.00
155, -62501.22, -61801.39, -91725.95, -35439.09, -18161.26, -58930.57, -82120.35, -44253.43, -0.03, 0.81, 0.56
156, -62167.82, -61606.41, -91913.19, -37296.99, -18063.52, -58653.52, -82064.45, -43990.38, 0.00, 0.00, 0.00
157, -61648.10, -61119.05, -95802.28, -47204.91, -17641.76, -58148.55, -81594.80, -43486.01, 0.00, 0.00, 0.00
158, -61915.40, -61249.77, -96015.47, -46520.21, -17692.05, -58356.76, -81608.61, -43690.84, 0.00, 0.00, 0.00
159, -62462.51, -61752.39, -92168.55, -36679.82, -18106.03, -58882.09, -82059.17, -44210.90, 0.00, 0.00, 0.00
160, -62266.10, -61697.56, -91303.66, -35859.02, -18109.00, -58743.27, -82107.14, -44074.11, 0.00, 0.00, 0.00
161, -61684.87, -61172.23, -95138.41, -45912.80, -17673.01, -58187.16, -81637.55, -43519.00, 0.00, 0.00, 0.00
162, -61820.61, -61177.62, -96281.90, -47634.74, -17619.25, -58265.77, -81540.13, -43600.85, 0.00, 0.00, 0.00
163, -62411.45, -61695.30, -92734.32, -38232.50, -18019.19, -58819.64, -81970.82, -44160.77, 0.00, 0.00, 0.00
164, -62378.82, -61780.09, -90881.09, -34811.77, -18144.45, -58842.29, -82152.96, -44186.04, 0.00, 0.00, 0.00
165, -61763.59, -61253.37, -94376.41, -44301.47, -17734.30, -58263.91, -81716.66, -43604.72, -0.03, 0.81, 0.57
166, -61758.47, -61123.66, -96389.91, -48391.35, -17596.83, -58213.75, -81527.70, -43552.44, 0.00, 0.00, 0.00
167, -62330.00, -61603.77, -93341.91, -39976.56, -17962.84, -58749.23, -81911.41, -44082.76, 0.00, 0.00, 0.00
168, -62438.75, -61808.47, -90656.13, -34224.50, -18176.75, -58904.64, -82174.58, -44234.70, 0.00, 0.00, 0.00
169, -61846.58, -61330.66, -93557.05, -42511.83, -17816.75, -58346.12, -81800.97, -43689.43, 0.00, 0.00, 0.00
170, -61703.69, -61100.70, -96326.20, -48730.96, -17593.71, -58162.63, -81519.31, -43506.71, 0.00, 0.00, 0.00
171, -62245.80, -61526.06, -93946.30, -41808.64, -17914.45, -58660.77, -81840.62, -44000.21, 0.00, 0.00, 0.00
172, -62486.82, -61835.74, -90609.48, -34137.73, -18190.68, -58927.40, -82168.45, -44268.05, 0.00, 0.00, 0.00
173, -61948.21, -61448.90, -92713.78, -40617.34, -17904.10, -58446.61, -81887.67, -43789.05, 0.00, 0.00, 0.00
174, -61656.37, -61072.38, -96092.20, -48638.60, -17583.36, -58139.90, -81523.73, -43478.93, 0.00, 0.00, 0.00
175, -62124.48, -61405.65, -94572.38, -43639.79, -17811.86, -58546.28, -81737.60, -43883.25, -0.03, 0.81, 0.57
176, -62516.11, -61825.97, -90806.28, -34611.83, -18180.80, -58948.50, -82153.59, -44284.48, 0.00, 0.00, 0.00
177, -62052.60, -61534.26, -91932.41, -38809.33, -17984.86, -58556.83, -81976.54, -43895.79, 0.00, 0.00, 0.00
178, -61625.19, -61083.43, -95685.22, -48082.00, -17597.88, -58129.09, -81542.36, -43467.04, 0.00, 0.00, 0.00
179, -61989.75, -61316.09, -95058.95, -45260.27, -17736.06, -58439.17, -81666.12, -43767.55, 0.00, 0.00, 0.00
180, -62480.86, -61785.18, -91129.16, -35480.24, -18138.35, -58925.81, -82113.96, -44245.14, 0.00, 0.00, 0.00
181, -62173.59, -61626.57, -91205.62, -37097.68, -18062.24, -58675.65, -82073.73, -44000.77, 0.00, 0.00, 0.00
182, -61676.64, -61164.45, -95112.41, -47089.80, -17647.24, -58170.50, -81613.15, -43505.32, 0.00, 0.00, 0.00
183, -61907.04, -61253.52, -95426.30, -46648.36, -17678.87, -58353.34, -81618.73, -43685.45, 0.00, 0.00, 0.00
184, -62447.00, -61734.51, -91582.34, -36769.25, -18091.88, -58881.00, -82062.28, -44212.17, 0.00, 0.00, 0.00
185, -62259.60, -61692.06, -90622.84, -35681.23, -18109.96, -58753.44, -82125.36, -44087.23, -0.03, 0.81, 0.56
186, -61690.97, -61180.05, -94438.40, -45750.93, -17679.83, -58200.32, -81663.15, -43536.21, 0.00, 0.00, 0.00
187, -61813.25, -61173.95, -95689.02, -47752.98, -17617.00, -58269.16, -81555.27, -43601.70, 0.00, 0.00, 0.00
188, -62389.95, -61664.13, -92186.05, -38403.02, -18021.14, -58817.59, -81979.65, -44144.31, 0.00, 0.00, 0.00
189, -62377.04, -61772.53, -90227.55, -34722.63, -18159.81, -58852.68, -82165.73, -44183.81, 0.00, 0.00, 0.00
190, -61798.21, -61288.79, -93647.59, -44126.90, -17756.16, -58292.66, -81743.81, -43633.33, 0.00, 0.00, 0.00
191, -61767.39, -61161.12, -95757.13, -48455.43, -17593.77, -58220.61, -81538.40, -43558.36, 0.00, 0.00, 0.00
192, -62301.33, -61589.78, -92801.06, -40187.92, -17944.63, -58734.70, -81904.68, -44058.08, 0.00, 0.00, 0.00
193, -62429.14, -61807.00, -90033.78, -34215.49, -18171.14, -58897.83, -82171.63, -44223.39, 0.00, 0.00, 0.00
194, -61839.14, -61325.27, -92856.90, -42348.08, -17807.37, -58353.29, -81803.00, -43685.57, 0.00, 0.00, 0.00
195, -61674.00, -61082.15, -95705.27, -48762.39, -17553.34, -58150.07, -81501.01, -43483.37, -0.02, 0.81, 0.56
196, -62220.50, -61508.09, -93431.56, -42020.25, -17868.59, -58640.63, -81816.26, -43971.96, 0.00, 0.00, 0.00
197, -62503.70, -61842.34, -90034.52, -34188.78, -18179.95, -58935.04, -82176.32, -44271.65, 0.00, 0.00, 0.00
198, -61945.78, -61437.03, -92042.05, -40472.75, -17891.65, -58442.52, -81884.49, -43779.40, 0.00, 0.00, 0.00
199, -61634.87, -61084.43, -95448.34, -48600.11, -17561.50, -58116.01, -81506.48, -43450.47, 0.00, 0.00, 0.00
200, -62095.38, -61415.64, -94011.01, -43795.47, -17779.72, -58519.03, -81720.23, -43852.09, 0.00, 0.00, 0.00
201, -62509.09, -61858.65, -90234.33, -34681.77, -18148.54, -58936.95, -82144.00, -44270.31, 0.00, 0.00, 0.00
202, -62073.27, -61541.39, -91255.20, -38640.18, -17969.06, -58563.16, -81982.09, -43898.13, 0.00, 0.00, 0.00
203, -61642.31, -61104.10, -95019.85, -48000.48, -17584.99, -58134.16, -81549.55, -43457.54, 0.00, 0.00, 0.00
204, -61994.17, -61322.48, -94483.52, -45400.91, -17710.81, -58429.63, -81654.88, -43751.10, 0.00, 0.00, 0.00
205, -62500.77, -61800.76, -90562.59, -35604.16, -18113.70, -58918.41, -82105.04, -44248.63, -0.02, 0.82, 0.56
206, -62187.20, -61639.49, -90567.41, -36988.11, -18029.74, -58656.96, -82065.23, -43996.66, 0.00, 0.00, 0.00
207, -61657.60, -61131.26, -94481.78, -47006.32, -17607.83, -58141.31, -81601.55, -43475.46, 0.00, 0.00, 0.00
208, -61895.27, -61233.25, -94873.77, -46773.39, -17641.85, -58322.20, -81608.59, -43649.65, 0.00, 0.00, 0.00
209, -62452.89, -61743.32, -91079.80, -36943.25, -18050.91, -58847.71, -82057.88, -44181.04, 0.00, 0.00, 0.00
210, -62294.45, -61722.46, -90015.88, -35612.96, -18092.57, -58746.57, -82149.34, -44084.43, 0.00, 0.00, 0.00
211, -61698.21, -61161.16, -93799.36, -45630.91, -17662.88, -58179.93, -81692.12, -43517.06, 0.00, 0.00, 0.00
212, -61815.49, -61170.89, -95125.31, -47832.11, -17603.34, -58240.87, -81597.43, -43574.70, 0.00, 0.00, 0.00
213, -62373.99, -61653.57, -91672.99, -38559.69, -17983.25, -58774.11, -82013.94, -44101.20, 0.00, 0.00, 0.00
214, -62372.63, -61771.43, -89656.55, -34661.68, -18131.60, -58820.63, -82217.65, -44152.00, 0.00, 0.00, 0.00
215, -61760.37, -61243.62, -93064.93, -44013.85, -17724.69, -58237.96, -81784.18, -43577.83, -0.03, 0.82, 0.56
216, -61727.56, -61093.51, -95244.52, -48528.27, -17565.32, -58158.57, -81573.74, -43499.64, 0.00, 0.00, 0.00
217, -62285.91, -61561.64, -92319.88, -40339.78, -17928.47, -58688.75, -81941.07, -44022.21, 0.00, 0.00, 0.00
218, -62425.65, -61796.43, -89469.07, -34149.24, -18164.86, -58874.29, -82234.13, -44206.38, 0.00, 0.00, 0.00
219, -61848.23, -61342.53, -92236.80, -42165.09, -17806.07, -58333.27, -81873.07, -43677.07, 0.00, 0.00, 0.00
220, -61676.66, -61082.93, -95136.45, -48755.43, -17548.94, -58126.63, -81564.73, -43471.37, 0.00, 0.00, 0.00
221, -62190.75, -61470.96, -92931.73, -42156.66, -17839.71, -58595.70, -81854.14, -43933.61, 0.00, 0.00, 0.00
222, -62465.75, -61805.95, -89484.11, -34158.47, -18155.47, -58902.70, -82218.25, -44233.95, 0.00, 0.00, 0.00
223, -61934.09, -61415.33, -91426.39, -40280.23, -17881.55, -58424.20, -81948.84, -43762.55, 0.00, 0.00, 0.00
224, -61625.30, -61053.07, -94912.77, -48591.55, -17548.78, -58082.93, -81563.68, -43431.54, 0.00, 0.00, 0.00
225, -62079.53, -61377.08, -93545.83, -43942.59, -17762.97, -58479.07, -81767.35, -43825.40, -0.02, 0.81, 0.57
226, -62490.42, -61807.76, -89713.33, -34689.64, -18142.89, -58903.98, -82194.20, -44246.89, 0.00, 0.00, 0.00
227, -62074.08, -61551.38, -90653.22, -38442.00, -17972.52, -58544.02, -82055.06, -43893.39, 0.00, 0.00, 0.00
228, -61641.37, -61118.32, -94467.56, -47937.98, -17580.56, -58097.14, -81606.30, -43454.16, 0.00, 0.00, 0.00
229, -61991.58, -61319.64, -94005.11, -45529.63, -17706.25, -58394.40, -81713.66, -43745.56, 0.00, 0.00, 0.00
230, -62503.32, -61779.73, -90064.48, -35669.25, -18106.83, -58890.54, -82163.58, -44243.31, 0.00, 0.00, 0.00
231, -62200.63, -61632.65, -89961.01, -36807.00, -18030.12, -58642.57, -82127.50, -44005.35, 0.00, 0.00, 0.00
232, -61663.48, -61134.10, -93894.78, -46908.69, -17602.82, -58119.94, -81661.67, -43480.00, 0.00, 0.00, 0.00
233, -61884.47, -61229.00, -94380.06, -46892.89, -17632.38, -58301.53, -81654.97, -43648.80, 0.00, 0.00, 0.00
234, -62428.53, -61723.69, -90590.97, -37054.88, -18056.39, -58838.46, -82100.57, -44177.57, 0.00, 0.00, 0.00
235, -62272.88, -61700.02, -89450.36, -35496.74, -18106.68, -58736.98, -82181.91, -44082.38, 0.00, 0.00, 0.00
236, -61699.06, -61186.07, -93219.29, -45528.85, -17677.26, -58175.20, -81724.10, -43530.76, -0.01, 0.81, 0.59
237, -61791.77, -61170.62, -94627.27, -47943.51, -17597.26, -58214.04, -81600.41, -43570.68, 0.00, 0.00, 0.00
238, -62366.71, -61674.72, -91207.05, -38716.21, -17997.27, -58765.77, -82018.09, -44113.00, 0.00, 0.00, 0.00
239, -62375.22, -61783.97, -89082.12, -34570.04, -18147.83, -58820.91, -82224.73, -44170.78, 0.00, 0.00, 0.00
240, -61757.04, -61251.06, -92445.90, -43871.24, -17726.99, -58232.30, -81778.80, -43592.58, 0.00, 0.00, 0.00
241, -61708.83, -61110.16, -94703.71, -48602.01, -17548.96, -58146.92, -81556.64, -43503.63, 0.00, 0.00, 0.00
242, -62270.44, -61560.48, -91836.70, -40501.14, -17896.42, -58667.79, -81919.41, -44019.66, 0.00, 0.00, 0.00
243, -62442.66, -61806.77, -88920.78, -34104.09, -18140.68, -58868.32, -82219.26, -44224.76, 0.00, 0.00, 0.00
244, -61847.10, -61345.55, -91632.25, -42015.11, -17788.17, -58330.54, -81868.09, -43686.68, 0.00, 0.00, 0.00
245, -61653.86, -61089.02, -94620.67, -48823.61, -17522.07, -58100.92, -81543.36, -43457.36, 0.00, 0.00, 0.00
246, -62175.00, -61482.02, -92483.54, -42360.78, -17811.05, -58567.34, -81822.42, -43924.62, -0.02, 0.80, 0.58
247, -62470.24, -61804.74, -88965.51, -34176.40, -18136.92, -58891.08, -82199.72, -44244.92, 0.00, 0.00, 0.00
248, -61951.19, -61437.32, -90778.30, -40081.41, -17877.68, -58427.39, -81948.17, -43785.37, 0.00, 0.00, 0.00
249, -61618.55, -61067.22, -94301.25, -48571.75, -17522.56, -58068.11, -81543.74, -43431.11, 0.00, 0.00, 0.00
250, -62057.52, -61376.57, -93022.26, -44111.99, -17730.52, -58452.87, -81731.30, -43809.77, 0.00, 0.00, 0.00
251, -62486.89, -61817.61, -89180.46, -34765.79, -18110.21, -58891.64, -82168.83, -44242.91, 0.00, 0.00, 0.00
252, -62069.25, -61562.51, -90031.21, -38296.36, -17943.15, -58536.54, -82032.93, -43890.98, 0.00, 0.00, 0.00
253, -61606.75, -61087.83, -93874.51, -47895.45, -17536.37, -58072.54, -81577.41, -43426.82, 0.00, 0.00, 0.00
254, -61938.85, -61275.16, -93498.84, -45691.28, -17646.01, -58357.14, -81666.48, -43700.45, 0.00, 0.00, 0.00
255, -62436.51, -61763.23, -89564.29, -35768.76, -18054.87, -58852.52, -82104.75, -44191.72, 0.00, 0.00, 0.00
0, -62151.68, -61607.60, -89357.94, -36661.84, -18000.51, -58626.21, -82092.21, -43977.77, -0.03, 0.80, 0.58
1, -61624.70, -61111.03, -93286.25, -46811.35, -17575.67, -58098.33, -81633.73, -43457.87, 0.00, 0.00, 0.00
2, -61842.43, -61215.61, -93859.58, -47019.11, -17597.21, -58265.32, -81614.58, -43618.60, 0.00, 0.00, 0.00
3, -62393.68, -61695.04, -90094.56, -37185.64, -18008.00, -58805.00, -82055.48, -44151.00, 0.00, 0.00, 0.00
4, -62242.92, -61672.62, -88845.27, -35348.88, -18052.77, -58714.12, -82141.90, -44064.43, 0.00, 0.00, 0.00
5, -61655.52, -61160.83, -92584.90, -45362.73, -17634.52, -58150.09, -81684.60, -43503.73, 0.00, 0.00, 0.00
6, -61748.03, -61142.66, -94092.03, -48037.16, -17550.28, -58184.25, -81562.01, -43538.29, 0.00, 0.00, 0.00
7, -62323.10, -61624.45, -90716.54, -38877.64, -17935.71, -58724.31, -81965.61, -44075.38, 0.00, 0.00, 0.00
8, -62347.55, -61770.03, -88529.78, -34518.98, -18086.63, -58789.09, -82175.94, -44145.25, 0.00, 0.00, 0.00
9, -61742.02, -61231.86, -91814.91, -43683.78, -17695.61, -58228.33, -81762.25, -43586.19, 0.00, 0.00, 0.00
10, -61674.63, -61078.44, -94119.20, -48605.83, -17512.12, -58121.89, -81529.37, -43474.12, -0.02, 0.80, 0.58
11, -62219.95, -61539.04, -91326.07, -40659.77, -17859.42, -58634.68, -81885.14, -43978.75, 0.00, 0.00, 0.00
12, -62394.65, -61786.21, -88358.88, -34089.40, -18112.27, -58845.52, -82191.98, -44190.43, 0.00, 0.00, 0.00
13, -61828.70, -61347.09, -90963.95, -41799.77, -17782.27, -58320.17, -81863.48, -43673.88, 0.00, 0.00, 0.00
14, -61614.64, -61077.79, -93990.67, -48772.20, -17506.56, -58077.07, -81536.68, -43425.91, 0.00, 0.00, 0.00
15, -62120.01, -61442.13, -91940.32, -42497.95, -17788.68, -58537.61, -81806.22, -43878.30, 0.00, 0.00, 0.00
16, -62446.59, -61818.46, -88416.86, -34221.05, -18116.89, -58876.75, -82192.37, -44223.11, 0.00, 0.00, 0.00
17, -61936.88, -61429.68, -90163.09, -39928.46, -17861.35, -58419.34, -81942.34, -43775.75, 0.00, 0.00, 0.00
18, -61597.92, -61054.13, -93694.73, -48488.46, -17514.27, -58059.59, -81548.03, -43417.43, 0.00, 0.00, 0.00
19, -62024.50, -61352.34, -92509.42, -44253.03, -17706.96, -58430.34, -81725.40, -43777.90, 0.00, 0.00, 0.00
20, -62470.04, -61801.12, -88661.08, -34840.91, -18097.25, -58878.00, -82165.88, -44223.11, -0.02, 0.79, 0.57
21, -62053.67, -61560.26, -89403.96, -38123.74, -17939.64, -58536.13, -82037.36, -43882.64, 0.00, 0.00, 0.00
22, -61597.02, -61106.34, -93238.00, -47766.88, -17544.24, -58072.31, -81591.27, -43421.04, 0.00, 0.00, 0.00
23, -61931.47, -61279.79, -92944.52, -45792.15, -17656.92, -58339.14, -81670.57, -43694.73, 0.00, 0.00, 0.00
24, -62436.40, -61761.33, -89041.05, -35903.83, -18059.76, -58838.60, -82112.53, -44194.67, 0.00, 0.00, 0.00
25, -62151.04, -61633.84, -88753.63, -36547.34, -17992.62, -58622.19, -82096.44, -43974.86, 0.00, 0.00, 0.00
26, -61625.57, -61135.24, -92640.94, -46648.52, -17566.62, -58101.28, -81639.01, -43458.76, 0.00, 0.00, 0.00
27, -61837.64, -61202.25, -93282.90, -47083.97, -17582.20, -58261.88, -81614.84, -43612.48, 0.00, 0.00, 0.00
28, -62405.58, -61718.77, -89567.98, -37335.41, -18000.84, -58801.80, -82059.58, -44149.45, 0.00, 0.00, 0.00
29, -62268.43, -61718.33, -88262.77, -35305.96, -18068.66, -58721.92, -82165.08, -44070.60, 0.00, 0.00, 0.00
30, -61673.98, -61200.91, -91939.27, -45207.77, -17655.96, -58158.14, -81720.81, -43506.60, -0.01, 0.79, 0.58
31, -61748.86, -61157.37, -93496.09, -48067.34, -17561.09, -58182.30, -81586.75, -43530.49, 0.00, 0.00, 0.00
32, -62330.23, -61649.28, -90173.57, -39030.48, -17954.20, -58735.27, -81986.45, -44076.12, 0.00, 0.00, 0.00
33, -62361.97, -61793.45, -87925.30, -34468.42, -18119.42, -58811.89, -82204.33, -44155.18, 0.00, 0.00, 0.00
34, -61764.95, -61297.80, -91149.25, -43502.82, -17731.10, -58248.64, -81793.19, -43595.94, 0.00, 0.00, 0.00
35, -61686.99, -61120.11, -93512.25, -48618.66, -17537.40, -58130.05, -81547.19, -43473.47, 0.00, 0.00, 0.00
36, -62240.24, -61562.34, -90787.55, -40827.88, -17884.48, -58645.30, -81894.02, -43984.23, 0.00, 0.00, 0.00
37, -62426.05, -61822.04, -87780.44, -34098.10, -18137.68, -58870.56, -82211.88, -44212.04, 0.00, 0.00, 0.00
38, -61860.64, -61384.64, -90331.91, -41651.18, -17801.49, -58345.34, -81872.13, -43699.65, 0.00, 0.00, 0.00
39, -61647.32, -61100.79, -93388.09, -48755.43, -17530.43, -58099.65, -81544.28, -43451.97, 0.00, 0.00, 0.00
40, -62133.46, -61452.57, -91420.66, -42683.20, -17798.58, -58549.32, -81805.93, -43889.35, -0.01, 0.80, 0.58
41, -62471.65, -61837.71, -87857.46, -34266.72, -18144.07, -58916.71, -82196.37, -44246.64, 0.00, 0.00, 0.00
42, -61977.90, -61492.22, -89499.63, -39748.98, -17897.62, -58481.30, -81960.42, -43815.56, 0.00, 0.00, 0.00
43, -61623.60, -61110.02, -93070.31, -48462.58, -17543.30, -58097.39, -81554.78, -43443.16, 0.00, 0.00, 0.00
44, -62039.52, -61403.55, -91957.63, -44424.83, -17729.36, -58459.82, -81725.17, -43800.07, 0.00, 0.00, 0.00
45, -62483.90, -61837.24, -88083.23, -34921.65, -18119.80, -58908.56, -82162.48, -44246.73, 0.00, 0.00, 0.00
46, -62075.17, -61571.03, -88766.53, -37994.37, -17958.22, -58563.29, -82027.70, -43905.26, 0.00, 0.00, 0.00
47, -61602.70, -61113.24, -92711.16, -47853.72, -17542.59, -58087.80, -81571.59, -43429.73, 0.00, 0.00, 0.00
48, -61929.44, -61307.12, -92561.07, -46171.24, -17649.81, -58356.31, -81644.91, -43691.54, 0.00, 0.00, 0.00
49, -62460.92, -61787.95, -88531.30, -36012.82, -18073.44, -58885.13, -82095.05, -44213.80, 0.00, 0.00, 0.00
50, -62188.50, -61677.80, -88056.98, -36281.51, -18029.59, -58678.27, -82098.78, -44013.63, -0.00, 0.80, 0.57
51, -61621.52, -61146.93, -92068.11, -46633.25, -17585.99, -58122.85, -81621.64, -43459.32, 0.00, 0.00, 0.00
52, -61818.22, -61202.74, -92874.49, -47403.22, -17581.61, -58257.72, -81566.14, -43594.89, 0.00, 0.00, 0.00
53, -62413.00, -61724.52, -89048.27, -37434.75, -18000.80, -58816.85, -82004.05, -44160.50, 0.00, 0.00, 0.00
54, -62304.46, -61754.16, -87521.91, -34962.39, -18073.17, -58771.38, -82134.19, -44119.57, 0.00, 0.00, 0.00
55, -61673.09, -61214.65, -91342.68, -45137.69, -17630.54, -58179.33, -81665.47, -43524.68, 0.00, 0.00, 0.00
56, -61725.35, -61125.74, -93121.81, -48435.31, -17527.03, -58184.92, -81508.16, -43524.12, 0.00, 0.00, 0.00
57, -62329.60, -61632.30, -89685.99, -39182.20, -17927.98, -58757.79, -81929.55, -44091.27, 0.00, 0.00, 0.00
58, -62396.59, -61800.58, -87162.05, -34089.85, -18117.96, -58861.73, -82178.51, -44204.57, 0.00, 0.00, 0.00
59, -61752.26, -61276.34, -90522.20, -43363.19, -17706.16, -58259.69, -81751.41, -43610.93, 0.00, 0.00, 0.00
60, -61630.95, -61069.88, -93205.34, -49047.01, -17483.49, -58107.49, -81470.98, -43453.67, -0.01, 0.81, 0.57
61, -62214.78, -61536.65, -90377.22, -41073.83, -17843.40, -58650.55, -81830.09, -43988.50, 0.00, 0.00, 0.00
